Humic acid																					Fulvic acid																											
L-MPD							M-MPD							H-MPD							L-MPD							M-MPD							H-MPD							C1s	Humic acid			Fulvic acid		
Binding energy (eV)	Intensity(a.u.)						Binding energy (eV)	Intensity(a.u.)						Binding energy (eV)	Intensity(a.u.)						Binding energy (eV)	Intensity(a.u.)						Binding energy (eV)	Intensity(a.u.)						Binding energy (eV)	Intensity(a.u.)							L-MPD	M-MPD	H-MPD	L-MPD	M-MPD	H-MPD
	C-C	C-O	COO	C=O	Backgnd.	Envelope		C-C	C-O	COO	C=O	Backgnd.	Envelope		C-C	C-O	COO	C=O	Backgnd.	Envelope		C-C	COO	C-O	C=O	Backgnd.	Envelope		C-C	COO	C-O	C=O	Backgnd.	Envelope		C-C	C=O	C-O	Backgnd.	Envelope		C-O	12.62	12.73	19.02	13.56	16.39	13.41
294.4	0	0	0	0	0	217.333	294.45	0	0	0	0	0	181.333	294.45	0	0	0	0	0	200.812	294.45	0	0	0	0	0	204	294.3	0	0	0	0	0	224	294.5	0	0	0	0	264		C=O	8.39	9.2	8.44	5.55	8.38	20.13
294.35	0	0	0	0	0	242.667	294.4	0	0	0	0	0	177.333	294.4	0	0	0	0	0	223.515	294.4	0	0	0	0	0	222.667	294.25	0	0	0	0	0	216	294.45	0	0	0	0	276		C=O + C-O	21.01	21.93	27.46	19.11	24.77	33.54
294.3	0	0	0	0	0	237.333	294.35	0	0	0	0	0	204	294.35	0	0	0	0	0	236.887	294.35	0	0	0	0	0	216	294.2	0	0	0	0	0	228	294.4	0	0	0	0	266.667								
294.25	0	0	0	0	0	220	294.3	0	0	0	0	0	182.667	294.3	0	0	0	0	0	222.259	294.3	0	0	0	0	0	210.667	294.15	0	0	0	0	0	193.333	294.35	0	0	0	0	252								
294.2	0	0	0	0	0	216	294.25	0	0	0	0	0	193.333	294.25	0	0	0	0	0	214.301	294.25	0	0	0	0	0	205.333	294.1	0	0	0	0	0	188	294.3	0	0	0	0	244								
294.15	0	0	0	0	0	233.333	294.2	0	0	0	0	0	209.333	294.2	0	0	0	0	0	202.344	294.2	0	0	0	0	0	209.333	294.05	0	0	0	0	0	204	294.25	0	0	0	0	268								
294.1	0	0	0	0	0	246.667	294.15	0	0	0	0	0	184	294.15	0	0	0	0	0	207.722	294.15	0	0	0	0	0	194.667	294	0	0	0	0	0	198.667	294.2	0	0	0	0	257.333								
294.05	0	0	0	0	0	225.333	294.1	0	0	0	0	0	177.333	294.1	0	0	0	0	0	235.768	294.1	0	0	0	0	0	185.333	293.95	0	0	0	0	0	193.333	294.15	0	0	0	0	276								
294	0	0	0	0	0	232	294.05	0	0	0	0	0	188	294.05	0	0	0	0	0	231.817	294.05	0	0	0	0	0	205.333	293.9	0	0	0	0	0	178.667	294.1	0	0	0	0	246.667								
293.95	0	0	0	0	0	226.667	294	0	0	0	0	0	204	294	0	0	0	0	0	226.534	294	0	0	0	0	0	213.333	293.85	0	0	0	0	0	178.667	294.05	0	0	0	0	252								
293.9	0	0	0	0	0	232	293.95	0	0	0	0	0	184	293.95	0	0	0	0	0	227.92	293.95	0	0	0	0	0	194.667	293.8	0	0	0	0	0	202.667	294	0	0	0	0	250.667								
293.85	0	0	0	0	0	250.667	293.9	0	0	0	0	0	181.333	293.9	0	0	0	0	0	219.975	293.9	0	0	0	0	0	216	293.75	0	0	0	0	0	216	293.95	0	0	0	0	248								
293.8	0	0	0	0	0	230.667	293.85	0	0	0	0	0	186.667	293.85	0	0	0	0	0	232.033	293.85	0	0	0	0	0	218.667	293.7	0	0	0	0	0	224	293.9	0	0	0	0	256								
293.75	0	0	0	0	0	210.667	293.8	0	0	0	0	0	172	293.8	0	0	0	0	0	222.759	293.8	0	0	0	0	0	200	293.65	0	0	0	0	0	202.667	293.85	0	0	0	0	248								
293.7	0	0	0	0	0	218.667	293.75	0	0	0	0	0	184	293.75	0	0	0	0	0	209.488	293.75	0	0	0	0	0	200	293.6	0	0	0	0	0	186.667	293.8	0	0	0	0	260								
293.65	0	0	0	0	0	236	293.7	0	0	0	0	0	174.667	293.7	0	0	0	0	0	212.219	293.7	0	0	0	0	0	206.667	293.55	0	0	0	0	0	190.667	293.75	0	0	0	0	254.667								
293.6	0	0	0	0	0	228	293.65	0	0	0	0	0	182.667	293.65	0	0	0	0	0	214.953	293.65	0	0	0	0	0	205.333	293.5	0	0	0	0	0	192	293.7	0	0	0	0	228								
293.55	0	0	0	0	0	241.333	293.6	0	0	0	0	0	201.333	293.6	0	0	0	0	0	213.69	293.6	0	0	0	0	0	208	293.45	0	0	0	0	0	200	293.65	0	0	0	0	241.333								
293.5	0	0	0	0	0	236	293.55	0	0	0	0	0	194.667	293.55	0	0	0	0	0	208.43	293.55	0	0	0	0	0	212	293.4	0	0	0	0	0	208	293.6	0	0	0	0	252								
293.45	0	0	0	0	0	197.334	293.5	0	0	0	0	0	176	293.5	0	0	0	0	0	201.839	293.5	0	0	0	0	0	224	293.35	0	0	0	0	0	209.333	293.55	0	0	0	0	240								
293.4	0	0	0	0	0	230.667	293.45	0	0	0	0	0	190.667	293.45	0	0	0	0	0	215.252	293.45	0	0	0	0	0	226.667	293.3	0	0	0	0	0	198.667	293.5	0	0	0	0	245.333								
293.35	0	0	0	0	0	242.667	293.4	0	0	0	0	0	216	293.4	0	0	0	0	0	244.668	293.4	0	0	0	0	0	216	293.25	0	0	0	0	0	188	293.45	0	0	0	0	269.333								
293.3	0	0	0	0	0	249.334	293.35	0	0	0	0	0	201.333	293.35	0	0	0	0	0	219.42	293.35	0	0	0	0	0	218.667	293.2	0	0	0	0	0	189.333	293.4	0	0	0	0	257.333								
293.25	0	0	0	0	0	222.667	293.3	0	0	0	0	0	184	293.3	0	0	0	0	0	243.51	293.3	0	0	0	0	0	193.333	293.15	0	0	0	0	0	190.667	293.35	0	0	0	0	258.667								
293.2	0	0	0	0	0	252.001	293.25	0	0	0	0	0	174.667	293.25	0	0	0	0	0	239.603	293.25	0	0	0	0	0	197.333	293.1	0	0	0	0	0	212	293.3	0	0	0	0	262.667								
293.15	0	0	0	0	0	241.335	293.2	0	0	0	0	0	176	293.2	0	0	0	0	0	201.034	293.2	0	0	0	0	0	186.667	293.05	0	0	0	0	0	206.667	293.25	0	0	0	0	256								
293.1	0	0	0	0	0	261.335	293.15	0	0	0	0	0	172.001	293.15	0	0	0	0	0	207.802	293.15	0	0	0	0	0	220	293	0	0	0	0	0	202.667	293.2	0	0	0	0	252								
293.05	0	0	0	0	0	237.336	293.1	0	0	0	0	0	172.001	293.1	0	0	0	0	0	222.574	293.1	0	0	0	0	0	228	292.95	0	0	0	0	0	181.333	293.15	0	0	0	0	253.334								
293	0	0	0	0	0	240.003	293.05	0	0	0	0	0	181.334	293.05	0	0	0	0	0	209.351	293.05	0	0	0	0	0	221.334	292.9	0	0	0	0	0	186.667	293.1	0	0	0	0	297.334								
292.95	0	0	0	0	0	242.671	293	0	0	0	0	0	184.001	293	0	0	0	0	0	209.465	293	0	0	0	0	0	253.334	292.85	0	0	0	0	0	202.667	293.05	0	0	0	0	269.334								
292.9	0	0	0	0	0	246.672	292.95	0	0	0	0	0	193.335	292.95	0	0	0	0	0	209.584	292.95	0	0	0	0	0	225.334	292.8	0	0	0	0	0	190.667	293	0	0	0	0	249.334								
292.85	0	0	0	0	0	266.673	292.9	0	0	0	0	0	178.669	292.9	0	0	0	0	0	235.042	292.9	0	0	0	0	0	218.667	292.75	0	0	0	0	0	176	292.95	0	0	0	0	217.334								
292.8	0	0	0	0	0	269.342	292.85	0	0	0	0	0	202.67	292.85	0	0	0	0	0	211.172	292.85	0	0	0	0	0	198.667	292.7	0	0	0	0	0	210.667	292.9	0	0	0	0	224.001								
292.75	0	0	0	0	0	238.678	292.8	0	0	0	0	0	176.004	292.8	0	0	0	0	0	215.307	292.8	0	0	0	0	0	200.001	292.65	0	0	0	0	0	226.667	292.85	0	0	0	0	250.668								
292.7	0	0	0	0	0	257.348	292.75	0	0	0	0	0	192.005	292.75	0	0	0	0	0	228.782	292.75	0	0	0	0	0	222.668	292.6	0	0	0	0	0	197.335	292.8	0	0	0	0	256.002								
292.65	0	0	0	0	0	257.353	292.7	0	0	0	0	0	201.34	292.7	0	0	0	0	0	208.929	292.7	0	0	0	0	0	201.335	292.55	0	0	0	0	0	210.668	292.75	0	0	0	0	238.669								
292.6	0	0	0	0	0	228.025	292.65	0	0	0	0	0	180.009	292.65	0	0	0	0	0	189.083	292.65	0	0	0	0	0	229.336	292.5	0	0	0	0	0	200.003	292.7	0	0	0	0	248.003								
292.55	0	0	0	0	0	229.366	292.6	0	0	0	0	0	174.679	292.6	0	0	0	0	0	203.91	292.6	0	0	0	0	0	201.337	292.45	0	0	0	0	0	194.67	292.65	0	0	0	0	228.004								
292.5	0	0	0	0	0	248.042	292.55	0	0	0	0	0	157.349	292.55	0	0	0	0	0	248.079	292.55	0	0	0	0	0	197.338	292.4	0	0	0	0	0	184.005	292.6	0	0	0	0	262.671								
292.45	0	0	0	0	0	245.387	292.5	0	0	0	0	0	166.687	292.5	0	0	0	0	0	224.254	292.5	0	0	0	0	0	204.007	292.35	0	0	0	0	0	224.008	292.55	0	0	0	0	266.672								
292.4	0	0	0	0	0	217.402	292.45	0	0	0	0	0	184.027	292.45	0	0	0	0	0	228.439	292.45	0	0	0	0	0	214.676	292.3	0	0	0	0	0	188.011	292.5	0	0	0	0	269.34								
292.35	0	0	0	0	0	226.753	292.4	0	0	0	0	0	176.034	292.4	0	0	0	0	0	232.632	292.4	0	0	0	0	0	209.346	292.25	0	0	0	0	0	216.016	292.45	0	0	0	0	276.009								
292.3	0	0	0	0	0	224.11	292.35	172.741	172.741	172.785	172.741	172.741	172.785	292.35	0	0	0	0	0	243.501	292.35	0	0	0	0	0	206.683	292.2	0	0	0	0	0	212.023	292.4	0	0	0	0	268.011								
292.25	0	0	0	0	0	230.806	292.3	172.74	172.74	172.796	172.74	172.74	172.796	292.3	0	0	0	0	0	211.714	292.3	0	0	0	0	0	197.355	292.15	0	0	0	0	0	196.032	292.35	0	0	0	0	249.347								
292.2	232.444	232.444	232.619	232.444	232.444	232.619	292.25	172.737	172.737	172.809	172.737	172.737	172.809	292.25	0	0	0	0	0	203.939	292.25	0	0	0	0	0	206.695	292.1	0	0	0	0	0	197.379	292.3	0	0	0	0	242.684								
292.15	232.438	232.438	232.658	232.438	232.438	232.658	292.2	172.735	172.735	172.827	172.735	172.735	172.827	292.2	0	0	0	0	0	240.176	292.2	0	0	0	0	0	196.038	292.05	0	0	0	0	0	184.064	292.25	0	0	0	0	245.355								
292.1	232.429	232.429	232.704	232.429	232.429	232.704	292.15	172.733	172.733	172.849	172.733	172.733	172.849	292.15	0	0	0	0	0	212.427	292.15	0	0	0	0	0	204.05	292	0	0	0	0	0	193.422	292.2	0	0	0	0	269.361								
292.05	232.421	232.421	232.764	232.421	232.421	232.764	292.1	172.73	172.73	172.878	172.73	172.73	172.878	292.1	0	0	0	0	0	226.026	292.1	201.333	201.398	201.333	201.333	201.333	201.398	291.95	0	0	0	0	0	184.122	292.15	0	0	0	0	237.367								
292	232.412	232.412	232.839	232.412	232.412	232.839	292.05	172.728	172.728	172.913	172.728	172.728	172.914	292.05	207.111	207.111	207.255	213.276	207.111	213.42	292.05	201.33	201.415	201.33	201.33	201.33	201.415	291.9	0	0	0	0	0	180.168	292.1	0	0	0	0	230.709								
291.95	232.403	232.403	232.933	232.403	232.403	232.933	292	172.726	172.726	172.959	172.726	172.726	172.959	292	205.938	205.938	206.122	212.366	205.938	212.549	292	201.326	201.436	201.326	201.326	201.326	201.436	291.85	0	0	0	0	0	196.229	292.05	0	0	0	0	260.052								
291.9	232.395	232.395	233.05	232.396	232.395	233.05	291.95	172.725	172.725	173.017	172.725	172.725	173.017	291.95	204.601	204.601	204.833	211.303	204.601	211.535	291.95	201.32	201.463	201.32	201.32	201.32	201.463	291.8	0	0	0	0	0	209.645	292	0	0	0	0	282.731								
291.85	232.387	232.387	233.194	232.387	232.387	233.194	291.9	172.721	172.721	173.086	172.722	172.721	173.086	291.9	197	197	197.292	203.989	197	204.281	291.9	201.315	201.498	201.315	201.315	201.315	201.498	291.75	0	0	0	0	0	203.088	291.95	0	0	0	0	270.745								
291.8	232.378	232.378	233.37	232.379	232.378	233.37	291.85	172.717	172.717	173.171	172.718	172.717	173.172	291.85	196.999	196.999	197.366	204.287	196.999	204.654	291.85	201.309	201.545	201.309	201.309	201.309	201.545	291.7	0	0	0	0	0	197.901	291.9	0	0	0	0	306.763								
291.75	232.372	232.372	233.587	232.372	232.372	233.587	291.8	172.713	172.713	173.276	172.714	172.713	173.277	291.8	196.996	196.996	197.456	204.597	196.996	205.057	291.8	201.303	201.604	201.303	201.303	201.303	201.604	291.65	0	0	0	0	0	182.093	291.85	0	0	0	0	272.119								
291.7	232.365	232.365	233.849	232.366	232.365	233.85	291.75	172.71	172.71	173.406	172.711	172.71	173.407	291.75	196.992	196.992	197.566	204.92	196.992	205.494	291.75	201.298	201.682	201.298	201.298	201.298	201.682	291.6	0	0	0	0	0	193.011	291.8	0	0	0	0	240.145								
291.65	232.36	232.36	234.167	232.36	232.36	234.167	291.7	172.706	172.706	173.564	172.707	172.706	173.565	291.7	196.986	196.986	197.701	205.255	196.986	205.97	291.7	201.292	201.78	201.292	201.292	201.292	201.78	291.55	194.074	195.412	194.074	194.074	194.074	195.412	291.75	0	0	0	0	249.51								
291.6	232.351	232.351	234.545	232.352	232.351	234.545	291.65	172.702	172.702	173.756	172.703	172.702	173.757	291.65	196.978	196.978	197.864	205.604	196.978	206.49	291.65	201.284	201.902	201.284	201.285	201.284	201.902	291.5	194.072	195.834	194.072	194.072	194.072	195.834	291.7	0	0	0	0	246.882								
291.55	232.342	232.342	234.996	232.343	232.342	234.997	291.6	172.698	172.698	173.988	172.7	172.698	173.99	291.6	196.969	196.969	198.064	205.969	196.969	207.064	291.6	201.276	202.055	201.276	201.277	201.276	202.055	291.45	194.069	196.376	194.069	194.069	194.069	196.377	291.65	0	0	0	0	253.594								
291.5	232.331	232.331	235.533	232.333	232.331	235.535	291.55	172.693	172.693	174.269	172.696	172.693	174.271	291.55	196.96	196.96	198.308	206.35	196.96	207.699	291.55	201.271	202.249	201.271	201.271	201.271	202.25	291.4	194.066	197.072	194.066	194.067	194.066	197.073	291.6	0	0	0	0	229.65								
291.45	232.32	232.32	236.17	232.322	232.32	236.172	291.5	172.689	172.689	174.605	172.693	172.689	174.609	291.5	196.949	196.949	198.605	206.748	196.949	208.404	291.5	201.267	202.492	201.267	201.268	201.267	202.493	291.35	194.063	197.958	194.063	194.063	194.063	197.959	291.55	0	0	0	0	228.382								
291.4	232.309	232.309	236.925	232.312	232.309	236.928	291.45	172.685	172.685	175.01	172.69	172.685	175.015	291.45	196.938	196.938	198.962	207.164	196.938	209.189	291.45	201.263	202.791	201.263	201.265	201.263	202.793	291.3	194.059	199.079	194.059	194.059	194.059	199.08	291.5	0	0	0	0	249.794								
291.35	232.296	232.296	237.812	232.301	232.296	237.816	291.4	172.683	172.683	175.493	172.69	172.683	175.499	291.4	196.924	196.924	199.392	207.598	196.924	210.067	291.4	201.259	203.159	201.259	201.261	201.259	203.161	291.25	194.053	200.489	194.053	194.054	194.053	200.491	291.45	0	0	0	0	220.554								
291.3	232.282	232.282	238.853	232.287	232.282	238.858	291.35	172.682	172.682	176.067	172.69	172.682	176.075	291.35	196.91	196.91	199.909	208.054	196.91	211.053	291.35	201.255	203.608	201.255	201.258	201.255	203.611	291.2	194.047	202.253	194.047	194.048	194.047	202.255	291.4	0	0	0	0	211.332								
291.25	232.265	232.265	240.069	232.273	232.265	240.077	291.3	172.68	172.68	176.745	172.691	172.68	176.756	291.3	196.897	196.897	200.529	208.533	196.897	212.165	291.3	201.251	204.155	201.251	201.255	201.251	204.159	291.15	194.038	204.445	194.038	194.04	194.038	204.448	291.35	0	0	0	0	255.464								
291.2	232.248	232.248	241.488	232.259	232.248	241.498	291.25	172.679	172.679	177.545	172.693	172.679	177.559	291.25	196.886	196.886	201.268	209.037	196.886	213.419	291.25	201.245	204.817	201.245	201.25	201.245	204.822	291.1	194.027	207.154	194.027	194.03	194.027	207.158	291.3	0	0	0	0	262.286								
291.15	232.234	232.234	243.138	232.248	232.234	243.152	291.2	172.677	172.677	178.483	172.696	172.677	178.502	291.2	196.876	196.876	202.146	209.566	196.876	214.837	291.2	201.239	205.616	201.239	201.245	201.239	205.622	291.05	194.014	210.482	194.014	194.019	194.014	210.487	291.25	0	0	0	0	247.803								
291.1	232.221	232.221	245.05	232.24	232.221	245.068	291.15	172.676	172.676	179.58	172.7	172.676	179.605	291.15	196.865	196.865	203.183	210.123	196.865	216.44	291.15	201.234	206.578	201.234	201.242	201.234	206.586	291	194	214.547	194	194.007	194	214.555	291.2	0	0	0	0	244.019								
291.05	232.209	232.209	247.254	232.234	232.209	247.278	291.1	172.673	172.673	180.858	172.705	172.673	180.889	291.1	196.854	196.854	204.399	210.706	196.854	218.251	291.1	201.228	207.729	201.228	201.239	201.228	207.74	290.95	193.982	219.48	193.982	193.992	193.982	219.49	291.15	246.667	248.272	246.667	246.667	248.272								
291	232.195	232.195	249.782	232.228	232.195	249.815	291.05	172.67	172.67	182.339	172.711	172.67	182.38	291.05	196.84	196.84	205.822	211.317	196.84	220.298	291.05	201.22	209.101	201.22	201.235	201.22	209.115	290.9	193.962	225.428	193.962	193.976	193.962	225.442	291.1	246.665	248.566	246.665	246.665	248.566								
290.95	232.179	232.179	252.673	232.223	232.179	252.716	291	172.666	172.666	184.052	172.718	172.666	184.104	291	196.826	196.826	207.48	211.957	196.826	222.612	291	201.212	210.731	201.212	201.231	201.212	210.75	290.85	193.939	232.556	193.939	193.958	193.939	232.576	291.05	246.661	248.908	246.661	246.661	248.908								
290.9	232.161	232.161	255.964	232.218	232.161	256.021	290.95	172.661	172.661	186.023	172.728	172.661	186.09	290.95	196.81	196.81	209.405	212.63	196.81	225.225	290.95	201.202	212.657	201.202	201.226	201.202	212.681	290.8	193.912	241.042	193.912	193.939	193.912	241.069	291	246.657	249.306	246.657	246.657	249.306								
290.85	232.143	232.143	259.701	232.218	232.143	259.776	290.9	172.654	172.654	188.285	172.74	172.654	188.37	290.9	196.792	196.792	211.629	213.337	196.792	228.174	290.9	201.189	214.924	201.189	201.22	201.189	214.955	290.75	193.882	251.078	193.882	193.919	193.882	251.115	290.95	246.652	249.769	246.652	246.652	249.769								
290.8	232.124	232.124	263.924	232.222	232.124	264.022	290.85	172.647	172.647	190.868	172.755	172.647	190.976	290.85	196.774	196.774	214.191	214.081	196.774	231.498	290.85	201.172	217.581	201.172	201.211	201.172	217.621	290.7	193.848	262.867	193.848	193.898	193.848	262.918	290.9	246.647	250.307	246.647	246.647	250.307								
290.75	232.105	232.105	268.679	232.231	232.105	268.806	290.8	172.637	172.637	193.807	172.775	172.637	193.944	290.8	196.753	196.753	217.126	214.862	196.753	235.235	290.8	201.156	220.688	201.156	201.207	201.156	220.739	290.65	193.808	276.618	193.808	193.877	193.808	276.687	290.85	246.641	250.927	246.641	246.641	250.927								
290.7	232.082	232.082	274.008	232.246	232.082	274.172	290.75	172.627	172.627	197.138	172.801	172.627	197.311	290.75	196.73	196.73	220.476	215.682	196.73	239.429	290.75	201.141	224.304	201.141	201.206	201.141	224.369	290.6	193.759	292.539	193.759	193.853	193.759	292.632	290.8	246.633	251.642	246.633	246.633	251.642								
290.65	232.055	232.055	279.954	232.267	232.055	280.166	290.7	172.615	172.615	200.898	172.833	172.615	201.115	290.7	196.704	196.704	224.284	216.545	196.704	244.125	290.7	201.121	228.488	201.121	201.203	201.12	228.571	290.55	193.703	310.838	193.703	193.829	193.703	310.964	290.75	246.624	252.465	246.624	246.624	252.465								
290.6	232.025	232.025	286.562	232.297	232.025	286.834	290.65	172.603	172.603	205.123	172.876	172.603	205.396	290.65	196.676	196.676	228.593	217.455	196.676	249.372	290.65	201.094	233.309	201.094	201.198	201.094	233.413	290.5	193.639	331.711	193.639	193.807	193.639	331.879	290.7	246.614	253.409	246.614	246.614	253.409								
290.55	231.992	231.992	293.874	232.34	231.992	294.221	290.6	172.589	172.589	209.852	172.931	172.589	210.194	290.6	196.648	196.648	233.448	218.416	196.648	255.216	290.6	201.063	238.842	201.064	201.195	201.063	238.974	290.45	193.563	355.326	193.563	193.788	193.563	355.55	290.65	246.603	254.491	246.603	246.603	254.491								
290.5	231.956	231.956	301.927	232.398	231.956	302.37	290.55	172.574	172.574	215.12	173	172.574	215.545	290.55	196.618	196.618	238.893	219.429	196.618	261.704	290.55	201.03	245.165	201.03	201.195	201.03	245.331	290.4	193.476	381.821	193.476	193.773	193.476	382.118	290.6	246.595	255.73	246.595	246.595	255.73								
290.45	231.916	231.916	310.756	232.477	231.916	311.317	290.5	172.556	172.556	220.959	173.084	172.556	221.487	290.5	196.584	196.584	244.968	220.497	196.584	268.881	290.5	200.993	252.359	200.993	201.2	200.993	252.566	290.35	193.373	411.283	193.373	193.765	193.373	411.675	290.55	246.587	257.143	246.587	246.587	257.143								
290.4	231.869	231.869	320.383	232.578	231.869	321.093	290.45	172.536	172.536	227.402	173.189	172.536	228.055	290.45	196.547	196.547	251.714	221.624	196.547	276.791	290.45	200.952	260.502	200.953	201.211	200.952	260.761	290.3	193.255	443.742	193.255	193.769	193.255	444.256	290.5	246.577	258.747	246.577	246.577	258.747								
290.35	231.814	231.814	330.83	232.707	231.814	331.722	290.4	172.513	172.513	234.476	173.318	172.513	235.281	290.4	196.506	196.506	259.167	222.815	196.506	285.475	290.4	200.904	269.674	200.905	201.227	200.904	269.997	290.25	193.119	479.149	193.119	193.79	193.119	479.82	290.45	246.565	260.563	246.565	246.565	260.563								
290.3	231.752	231.752	342.105	232.872	231.752	343.225	290.35	172.488	172.488	242.205	173.477	172.488	243.194	290.35	196.464	196.464	267.36	224.076	196.464	294.972	290.35	200.85	279.954	200.851	201.25	200.85	280.355	290.2	192.965	517.369	192.965	193.837	192.965	518.24	290.4	246.551	262.615	246.551	246.551	262.615								
290.25	231.682	231.682	354.209	233.08	231.682	355.607	290.3	172.46	172.46	250.603	173.671	172.46	251.814	290.3	196.416	196.416	276.315	225.408	196.416	305.307	290.3	200.786	291.415	200.787	201.281	200.786	291.911	290.15	192.796	558.159	192.796	193.922	192.796	559.286	290.35	246.538	264.93	246.538	246.538	264.93								
290.2	231.601	231.601	367.124	233.34	231.601	368.863	290.25	172.43	172.43	259.678	173.908	172.43	261.156	290.25	196.364	196.364	286.047	226.818	196.364	316.502	290.25	200.718	304.13	200.719	201.328	200.717	304.743	290.1	192.603	601.156	192.603	194.052	192.603	602.605	290.3	246.521	267.531	246.521	246.521	267.531								
290.15	231.509	231.509	380.822	233.663	231.509	382.976	290.2	172.397	172.397	269.429	174.194	172.397	271.227	290.2	196.307	196.307	296.565	228.313	196.307	328.571	290.2	200.643	318.16	200.645	201.395	200.643	318.913	290.05	192.388	645.877	192.388	194.241	192.388	647.73	290.25	246.502	270.447	246.502	246.502	270.447								
290.1	231.406	231.406	395.258	234.063	231.406	397.916	290.15	172.361	172.361	279.842	174.54	172.361	282.021	290.15	196.246	196.246	307.859	229.899	196.246	341.512	290.15	200.563	333.552	200.565	201.485	200.563	334.476	290	192.153	691.713	192.153	194.512	192.153	694.073	290.2	246.481	273.707	246.481	246.481	273.707								
290.05	231.294	231.295	410.372	234.561	231.294	413.639	290.1	172.322	172.322	290.889	174.955	172.322	293.522	290.1	196.181	196.181	319.91	231.582	196.181	355.311	290.1	200.474	350.333	200.477	201.601	200.474	351.463	289.95	191.896	737.926	191.896	194.884	191.896	740.915	290.15	246.456	277.341	246.456	246.456	277.341								
290	231.173	231.173	426.079	235.171	231.172	430.078	290.05	172.28	172.28	302.532	175.45	172.28	305.702	290.05	196.11	196.11	332.678	233.371	196.11	369.94	290.05	200.373	368.516	200.377	201.747	200.373	369.893	289.9	191.617	783.666	191.617	195.384	191.617	787.433	290.1	246.429	281.38	246.429	246.429	281.38								
289.95	231.045	231.046	442.282	235.919	231.045	447.158	290	172.234	172.234	314.714	176.038	172.234	318.518	290	196.033	196.033	346.108	235.273	196.032	385.349	290	200.262	388.089	200.267	201.931	200.262	389.764	289.85	191.316	827.985	191.316	196.039	191.316	832.709	290.05	246.398	285.859	246.398	246.398	285.859								
289.9	230.909	230.91	458.855	236.828	230.909	464.775	289.95	172.185	172.185	327.361	176.733	172.185	331.91	289.95	195.948	195.948	360.124	237.297	195.948	401.473	289.95	200.139	409.014	200.145	202.161	200.138	411.044	289.8	190.989	869.869	190.989	196.881	190.989	875.761	290	246.364	290.808	246.364	246.364	290.808								
289.85	230.764	230.765	475.654	237.922	230.764	482.814	289.9	172.13	172.13	340.384	177.551	172.13	345.805	289.9	195.855	195.855	374.629	239.451	195.855	418.226	289.9	200.005	431.224	200.014	202.447	200.005	433.676	289.75	190.642	908.281	190.642	197.956	190.642	915.595	289.95	246.326	296.263	246.326	246.326	296.263								
289.8	230.611	230.613	492.516	239.232	230.611	501.141	289.85	172.071	172.071	353.675	178.51	172.071	360.114	289.85	195.755	195.756	389.509	241.75	195.755	435.504	289.85	199.862	454.617	199.873	202.803	199.861	457.572	289.7	190.278	942.197	190.279	199.311	190.278	951.23	289.9	246.284	302.257	246.284	246.284	302.257								
289.75	230.452	230.454	509.264	240.793	230.451	519.609	289.8	172.007	172.007	367.11	179.629	172.007	374.731	289.8	195.649	195.649	404.625	244.204	195.649	453.182	289.8	199.701	479.046	199.715	203.233	199.7	482.595	289.65	189.897	970.652	189.898	200.995	189.897	981.75	289.85	246.239	308.823	246.239	246.239	308.823								
289.7	230.285	230.288	525.697	242.639	230.284	538.057	289.75	171.938	171.938	380.547	180.927	171.938	389.537	289.75	195.535	195.536	419.821	246.829	195.535	471.116	289.75	199.523	504.333	199.542	203.752	199.522	508.584	289.6	189.502	992.799	189.503	203.066	189.502	1006.36	289.8	246.188	315.991	246.188	246.188	315.991								
289.65	230.108	230.112	541.606	244.806	230.107	556.311	289.7	171.862	171.862	393.831	182.429	171.862	404.398	289.7	195.411	195.412	434.915	249.635	195.411	489.141	289.7	199.326	530.256	199.35	204.375	199.324	535.334	289.55	189.094	1007.95	189.095	205.586	189.094	1024.44	289.75	246.133	323.793	246.133	246.133	323.793								
289.6	229.918	229.923	556.771	247.331	229.916	574.194	289.65	171.782	171.782	406.797	184.159	171.782	419.173	289.65	195.279	195.28	449.718	252.641	195.278	507.083	289.65	199.11	556.557	199.142	205.121	199.108	562.605	289.5	188.676	1015.62	188.677	208.625	188.676	1035.57	289.7	246.077	332.26	246.077	246.077	332.26								
289.55	229.717	229.724	570.972	250.262	229.715	591.53	289.6	171.696	171.696	419.265	186.142	171.696	433.711	289.6	195.137	195.139	464.022	255.864	195.136	524.753	289.6	198.879	582.943	198.92	206.015	198.877	590.126	289.45	188.253	1015.54	188.254	212.254	188.253	1039.55	289.65	246.018	341.415	246.018	246.018	341.415								
289.5	229.504	229.514	583.991	253.641	229.502	608.145	289.55	171.602	171.602	431.053	188.404	171.602	447.855	289.55	194.986	194.989	477.614	259.325	194.985	541.958	289.55	198.63	609.078	198.683	207.078	198.628	617.585	289.4	187.827	1007.73	187.829	216.55	187.827	1036.45	289.6	245.953	351.276	245.953	245.953	351.276								
289.45	229.28	229.294	595.618	257.516	229.277	623.877	289.5	171.503	171.503	441.98	190.975	171.503	461.452	289.5	194.827	194.831	490.278	263.045	194.826	558.503	289.5	198.366	634.604	198.433	208.337	198.363	644.652	289.35	187.405	992.409	187.409	221.595	187.405	1026.6	289.55	245.884	361.86	245.884	245.884	361.86								
289.4	229.044	229.063	605.656	261.934	229.04	638.576	289.45	171.399	171.399	451.868	193.884	171.399	474.353	289.45	194.661	194.665	501.8	267.05	194.659	574.199	289.45	198.083	659.133	198.169	209.82	198.079	670.969	289.3	186.984	970.053	186.989	227.459	186.984	1010.53	289.5	245.807	373.175	245.807	245.807	373.175								
289.35	228.799	228.823	613.931	266.942	228.794	652.114	289.4	171.29	171.29	460.549	197.16	171.29	486.418	289.4	194.487	194.494	511.977	271.366	194.485	588.869	289.4	197.78	682.268	197.889	211.557	197.774	696.17	289.25	186.565	941.335	186.572	234.215	186.565	988.992	289.45	245.723	385.224	245.723	245.723	385.224								
289.3	228.544	228.577	620.293	272.585	228.538	664.386	289.35	171.177	171.177	467.866	200.831	171.177	497.521	289.35	194.308	194.317	520.619	276.023	194.306	602.352	289.35	197.461	703.613	197.599	213.588	197.455	719.898	289.2	186.161	907.106	186.17	241.942	186.161	962.897	289.4	245.635	398.008	245.636	245.635	398.008								
289.25	228.284	228.327	624.627	278.906	228.276	675.316	289.3	171.06	171.061	473.687	204.926	171.06	507.553	289.3	194.121	194.133	527.559	281.049	194.117	614.51	289.3	197.127	722.776	197.301	215.951	197.118	741.801	289.15	185.77	868.32	185.783	250.696	185.769	933.261	289.35	245.543	411.51	245.543	245.543	411.511								
289.2	228.018	228.076	626.848	285.942	228.008	684.859	289.25	170.94	170.941	477.9	209.469	170.94	516.43	289.25	193.929	193.946	532.661	286.482	193.925	625.243	289.25	196.78	739.394	197	218.692	196.77	761.557	289.1	185.39	826	185.409	260.522	185.39	901.152	289.3	245.442	425.707	245.442	245.442	425.707								
289.15	227.747	227.823	626.911	293.718	227.735	692.995	289.2	170.816	170.817	480.424	214.483	170.816	524.091	289.2	193.733	193.755	535.82	292.358	193.728	634.484	289.2	196.424	753.136	196.7	221.858	196.411	778.884	289.05	185.028	781.193	185.054	271.453	185.027	867.646	289.25	245.329	440.561	245.33	245.329	440.562								
289.1	227.47	227.569	624.808	302.254	227.455	699.737	289.15	170.691	170.693	481.208	219.988	170.691	530.507	289.15	193.537	193.567	536.972	298.72	193.53	642.206	289.15	196.058	763.713	196.403	225.496	196.042	793.544	289	184.68	734.912	184.716	283.491	184.679	833.763	289.2	245.21	456.034	245.211	245.21	456.034								
289.05	227.19	227.32	620.575	311.557	227.171	705.129	289.1	170.566	170.568	480.238	226	170.566	535.674	289.1	193.337	193.377	536.088	305.607	193.329	648.423	289.1	195.683	770.9	196.114	229.656	195.663	805.363	288.95	184.348	688.114	184.397	296.62	184.346	800.44	289.15	245.088	472.07	245.088	245.088	472.07								
289	226.908	227.076	614.287	321.62	226.884	709.239	289.05	170.439	170.443	477.528	232.524	170.439	539.615	289.05	193.133	193.186	533.18	313.06	193.123	653.191	289.05	195.303	774.539	195.838	234.393	195.278	814.238	288.9	184.031	641.658	184.098	310.786	184.029	768.485	289.1	244.96	488.6	244.961	244.96	488.6								
288.95	226.624	226.841	606.052	332.419	226.594	712.153	289	170.313	170.317	473.128	239.562	170.313	542.382	289	192.927	192.997	528.304	321.129	192.914	656.615	289	194.919	774.545	195.583	239.76	194.889	820.141	288.85	183.731	596.291	183.822	325.902	183.729	738.561	289.05	244.831	505.543	244.832	244.831	505.544								
288.9	226.341	226.62	596.014	343.911	226.304	713.974	288.95	170.185	170.192	467.12	247.103	170.185	544.045	288.95	192.721	192.813	521.556	329.86	192.705	658.836	288.95	194.531	770.91	195.351	245.805	194.494	823.115	288.8	183.448	552.637	183.571	341.842	183.444	711.164	289	244.696	522.801	244.698	244.696	522.802								
288.85	226.056	226.414	584.339	356.03	226.011	714.807	288.9	170.057	170.067	459.614	255.13	170.057	544.697	288.9	192.515	192.635	513.063	339.299	192.494	660.029	288.9	194.147	763.71	195.156	252.581	194.101	823.292	288.75	183.177	511.186	183.343	358.431	183.173	686.619	288.95	244.555	540.263	244.557	244.555	540.265								
288.8	225.773	226.23	571.22	368.688	225.717	714.76	288.85	169.928	169.942	450.744	263.614	169.928	544.443	288.85	192.309	192.465	502.984	349.49	192.283	660.398	288.85	193.768	753.091	195.007	260.13	193.712	820.862	288.7	182.917	472.306	183.139	375.452	182.911	665.081	288.9	244.407	557.808	244.411	244.407	557.812								
288.75	225.491	226.073	556.863	381.775	225.423	713.934	288.8	169.8	169.82	440.665	272.512	169.8	543.396	288.8	192.105	192.308	491.503	360.474	192.073	660.169	288.8	193.391	739.264	194.906	268.474	193.321	816.071	288.65	182.666	436.246	182.962	392.65	182.659	646.549	288.85	244.256	575.306	244.26	244.256	575.311								
288.7	225.215	225.95	541.488	395.156	225.13	712.418	288.75	169.672	169.7	429.545	281.77	169.672	541.671	288.75	191.902	192.164	478.818	372.279	191.863	659.575	288.75	193.018	722.505	194.866	277.629	192.933	809.219	288.6	182.423	403.151	182.816	409.724	182.413	630.875	288.8	244.097	592.61	244.104	244.097	592.617								
288.65	224.943	225.87	525.314	408.67	224.839	710.28	288.7	169.542	169.582	417.562	291.318	169.542	539.378	288.7	191.699	192.036	465.142	384.922	191.651	658.846	288.7	192.65	703.139	194.896	287.583	192.546	800.629	288.55	182.188	373.076	182.707	426.349	182.175	617.794	288.75	243.929	609.563	243.94	243.929	609.574								
288.6	224.677	225.841	508.561	422.134	224.549	707.564	288.65	169.413	169.469	404.9	301.076	169.413	536.618	288.65	191.499	191.93	450.691	398.403	191.439	658.206	288.65	192.29	681.528	195.01	298.299	192.163	790.639	288.5	181.961	345.996	182.643	442.169	181.945	606.935	288.7	243.749	626.006	243.764	243.749	626.021								
288.55	224.42	225.876	491.443	435.35	224.265	704.295	288.6	169.287	169.364	391.743	310.949	169.287	533.483	288.6	191.304	191.853	435.685	412.699	191.23	657.851	288.6	191.939	658.063	195.224	309.702	191.784	779.574	288.45	181.744	321.826	182.635	456.821	181.723	597.858	288.65	243.56	641.774	243.582	243.559	641.797								
288.5	224.174	225.987	474.16	448.101	223.984	700.469	288.55	169.161	169.268	378.266	320.828	169.161	530.041	288.55	191.112	191.81	420.329	427.747	191.021	657.933	288.55	191.6	633.142	195.554	321.671	191.413	767.729	288.4	181.534	300.43	182.693	469.938	181.506	590.076	288.6	243.359	656.702	243.391	243.359	656.734								
288.45	223.933	226.183	456.894	460.153	223.702	696.055	288.5	169.035	169.183	364.636	330.591	169.035	526.34	288.5	190.924	191.806	404.821	443.442	190.813	658.554	288.5	191.279	607.168	196.022	334.031	191.051	755.347	288.35	181.329	281.635	182.829	481.171	181.293	583.083	288.55	243.153	670.629	243.198	243.153	670.675								
288.4	223.704	226.483	439.817	471.281	223.424	691.013	288.45	168.911	169.114	351.01	340.112	168.911	522.413	288.45	190.737	191.849	389.339	459.624	190.601	659.745	288.45	190.971	580.526	196.644	346.543	190.696	742.597	288.3	181.128	265.247	183.06	490.206	181.082	576.394	288.5	242.937	683.39	243	242.936	683.455								
288.35	223.486	226.907	423.078	481.259	223.147	685.288	288.4	168.789	169.064	337.53	349.252	168.789	518.269	288.4	190.553	191.948	374.05	476.073	190.388	661.461	288.4	190.679	553.581	197.441	358.909	190.347	729.569	288.25	180.937	251.064	183.414	496.787	180.879	569.566	288.45	242.712	694.833	242.801	242.711	694.925								
288.3	223.285	227.478	406.81	489.874	222.875	678.82	288.35	168.666	169.039	324.318	357.869	168.666	513.894	288.35	190.375	192.117	359.098	492.501	190.173	663.572	288.35	190.407	526.675	198.439	370.774	190.006	716.277	288.2	180.755	238.874	183.916	500.714	180.681	562.215	288.4	242.478	704.816	242.603	242.476	704.945								
288.25	223.103	228.221	391.12	496.934	222.609	671.553	288.3	168.545	169.046	311.484	365.825	168.545	509.266	288.3	190.204	192.372	344.608	508.548	189.959	665.857	288.3	190.15	500.107	199.661	381.732	189.668	702.647	288.15	180.583	228.464	184.595	501.863	180.489	554.039	288.35	242.237	713.212	242.412	242.235	713.392								
288.2	222.943	229.164	376.098	502.274	222.347	663.439	288.25	168.427	169.096	299.12	372.982	168.426	504.347	288.25	190.04	192.727	330.68	523.783	189.742	668.004	288.25	189.918	474.151	201.143	391.362	189.339	688.557	288.1	180.422	219.632	185.49	500.195	180.302	544.832	288.3	241.989	719.911	242.23	241.985	720.16								
288.15	222.802	230.336	361.809	505.761	222.086	654.451	288.2	168.309	169.199	287.295	379.21	168.308	499.09	288.2	189.886	193.202	317.397	537.726	189.525	669.636	288.2	189.716	449.037	202.918	399.245	189.022	673.85	288.05	180.271	212.183	186.643	495.752	180.12	534.488	288.25	241.736	724.823	242.068	241.73	725.166								
288.1	222.684	231.77	348.301	507.304	221.824	644.586	288.15	168.189	169.366	276.066	384.39	168.188	493.447	288.15	189.744	193.819	304.82	549.869	189.307	670.331	288.15	189.545	424.951	205.021	404.999	188.714	658.372	288	180.133	205.937	188.104	488.662	179.943	523.007	288.2	241.473	727.878	241.927	241.466	728.347								
288.05	222.593	233.506	335.609	506.862	221.563	633.88	288.1	168.073	169.619	265.476	388.424	168.071	487.38	288.1	189.618	194.608	292.996	559.714	189.091	669.663	288.1	189.408	402.04	207.489	408.323	188.417	642.01	287.95	180.01	200.729	189.933	479.128	179.771	510.487	288.15	241.206	729.032	241.822	241.195	729.67								
288	222.543	235.597	323.759	504.448	221.311	622.412	288.05	167.96	169.98	255.554	391.231	167.957	480.855	288.05	189.506	195.593	281.945	566.811	188.872	667.239	288.05	189.311	380.416	210.363	409.029	188.129	624.731	287.9	179.901	196.408	192.193	467.411	179.602	497.107	288.1	240.934	728.269	241.767	240.919	729.131								
287.95	222.535	238.087	312.753	500.11	221.066	610.288	288	167.848	170.472	246.309	392.752	167.843	473.852	288	189.42	196.813	271.686	570.819	188.657	662.766	288	189.256	360.151	213.683	407.063	187.85	606.604	287.85	179.812	192.84	194.962	453.828	179.438	483.13	288.05	240.662	725.598	241.779	240.641	726.756								
287.9	222.58	241.031	302.588	493.948	220.83	597.656	287.95	167.739	171.129	237.748	392.956	167.732	466.374	287.95	189.362	198.307	262.218	571.53	188.448	656.073	287.95	189.252	341.294	217.497	402.518	187.582	587.814	287.8	179.745	189.909	198.325	438.727	179.278	468.873	288	240.393	721.054	241.883	240.365	722.6								
287.85	222.679	244.48	293.241	486.093	220.599	584.694	287.9	167.636	171.988	229.863	391.837	167.626	458.446	287.9	189.338	200.115	253.528	568.895	188.243	647.147	287.9	189.305	323.861	221.85	395.613	187.326	568.651	287.75	179.706	187.512	202.379	422.475	179.125	454.697	287.95	240.128	714.695	242.103	240.09	716.746								
287.8	222.84	248.491	284.687	476.717	220.374	571.614	287.85	167.537	173.094	222.64	389.416	167.524	450.116	287.85	189.346	202.28	245.588	563.034	188.038	636.134	287.85	189.426	307.845	226.793	386.676	187.084	549.487	287.7	179.7	185.56	207.229	405.436	178.979	440.987	287.9	239.871	706.602	242.473	239.818	709.308								
287.75	223.076	253.129	276.896	466.018	220.155	558.654	287.8	167.444	174.495	216.054	385.738	167.424	441.459	287.8	189.395	204.856	238.374	554.224	187.836	623.341	287.8	189.618	293.216	232.367	376.097	186.853	530.74	287.65	179.733	183.977	212.986	387.963	178.841	428.136	287.85	239.624	696.879	243.03	239.553	700.428								
287.7	223.399	258.458	269.834	454.217	219.946	546.069	287.75	167.359	176.256	210.082	380.878	167.331	432.581	287.75	189.495	207.9	231.851	542.867	187.64	609.194	287.75	189.893	279.93	238.621	364.305	186.633	512.85	287.6	179.81	182.696	219.773	370.383	178.709	416.535	287.8	239.389	685.646	243.82	239.292	690.269								
287.65	223.823	264.547	263.462	441.542	219.75	534.125	287.7	167.281	178.44	204.69	374.924	167.242	423.608	287.7	189.652	211.471	225.981	529.437	187.448	594.198	287.7	190.257	267.926	245.596	351.718	186.421	496.232	287.55	179.937	181.66	227.715	352.988	178.582	406.554	287.75	239.172	673.042	244.902	239.043	679.031								
287.6	224.358	271.455	257.735	428.222	219.562	523.083	287.65	167.208	181.122	199.84	367.984	167.154	414.692	287.65	189.873	215.635	220.72	514.444	187.26	578.891	287.65	190.724	257.136	253.333	338.728	186.218	481.266	287.5	180.123	180.824	236.946	336.032	178.46	398.545	287.7	238.979	659.219	246.34	238.805	666.928								
287.55	225.016	279.239	252.602	414.475	219.378	513.197	287.6	167.143	184.389	195.498	360.183	167.069	406.008	287.6	190.173	220.463	216.029	498.39	187.081	563.811	287.6	191.307	247.486	261.87	325.678	186.024	468.269	287.45	180.38	180.15	247.601	319.729	178.344	392.828	287.65	238.806	644.327	248.205	238.573	654.19								
287.5	225.816	287.96	248.022	400.521	219.201	504.715	287.55	167.089	188.335	191.628	351.657	166.986	397.75	287.55	190.557	226.022	211.859	481.731	186.906	549.453	287.55	192.021	238.898	271.238	312.849	185.838	457.492	287.4	180.717	179.602	259.811	304.242	178.23	389.681	287.6	238.661	628.534	250.586	238.352	641.077								
287.45	226.773	297.667	243.946	386.552	219.026	497.86	287.5	167.048	193.061	188.191	342.543	166.906	390.126	287.5	191.038	232.386	208.167	464.867	186.733	536.257	287.5	192.882	231.288	281.459	300.459	185.658	449.114	287.35	181.148	179.156	273.701	289.696	178.119	389.345	287.55	238.546	612.002	253.58	238.137	627.854								
287.4	227.911	308.405	240.33	372.748	218.854	492.833	287.45	167.021	198.678	185.15	332.984	166.827	383.352	287.45	191.63	239.63	204.911	448.126	186.566	524.6	287.45	193.907	224.572	292.546	288.67	185.483	443.248	287.3	181.686	178.785	289.386	276.175	178.006	392.015	287.5	238.469	594.898	257.302	237.93	614.809								
287.35	229.257	320.21	237.136	359.269	218.687	489.81	287.4	167.014	205.298	182.469	323.116	166.749	377.649	287.4	192.354	247.834	202.052	431.772	186.406	514.793	287.4	195.119	218.671	304.501	277.589	185.311	439.949	287.25	182.35	178.472	306.962	263.726	177.889	397.842	287.45	238.438	577.384	261.879	237.73	602.24								
287.3	230.836	333.096	234.32	346.242	218.522	488.927	287.35	167.03	213.037	180.113	313.073	166.672	373.238	287.35	193.226	257.067	199.55	415.991	186.253	507.076	287.35	196.544	213.507	317.317	267.285	185.143	439.223	287.2	183.16	178.201	326.503	252.366	177.768	406.926	287.4	238.465	559.616	267.449	237.539	590.452								
287.25	232.675	347.062	231.839	333.772	218.355	490.283	287.3	167.078	222.01	178.048	302.979	166.594	370.333	287.3	194.265	267.399	197.367	400.918	186.106	501.631	287.3	198.205	209.002	330.964	257.786	184.977	441.026	287.15	184.145	177.964	348.053	242.09	177.644	419.321	287.35	238.563	541.745	274.166	237.357	579.761								
287.2	234.813	362.094	229.661	321.944	218.188	493.948	287.25	167.168	232.328	176.247	292.95	166.518	369.138	287.25	195.494	278.888	195.467	386.632	185.963	498.591	287.25	200.132	205.085	345.4	249.093	184.81	445.28	287.1	185.331	177.748	371.611	232.864	177.512	435.018	287.3	238.74	523.901	282.183	237.176	570.472								
287.15	237.289	378.148	227.753	310.821	218.022	499.945	287.2	167.312	244.089	174.68	283.089	166.444	369.836	287.2	196.936	291.585	193.817	373.176	185.823	498.044	287.2	202.358	201.688	360.562	241.188	184.641	451.874	287.05	186.755	177.547	397.13	224.644	177.374	453.954	287.25	239.016	506.21	291.665	236.995	562.9								
287.1	240.146	395.156	226.081	300.44	217.854	508.261	287.15	167.522	257.37	173.318	273.48	166.369	372.583	287.15	198.616	305.524	192.382	360.561	185.682	500.037	287.15	204.92	198.748	376.367	234.038	184.467	460.673	287	188.457	177.355	424.507	217.371	177.23	476.001	287.2	239.415	488.789	302.783	236.817	557.354								
287.05	243.427	413.014	224.613	290.818	217.679	518.835	287.1	167.817	272.225	172.136	264.199	166.292	377.5	287.1	200.569	320.73	191.137	348.779	185.541	504.593	287.1	207.862	196.209	392.716	227.603	184.29	471.522	286.95	190.48	177.166	453.568	210.974	177.075	500.963	287.15	239.968	471.739	315.7	236.639	554.129								
287	247.184	431.591	223.32	281.958	217.494	531.572	287.05	168.222	288.674	171.113	255.307	166.215	384.673	287.05	202.831	337.207	190.058	337.807	185.4	511.703	287.05	211.228	194.017	409.48	221.832	184.105	484.242	286.9	192.868	176.968	484.066	205.374	176.903	528.569	287.1	240.708	455.149	330.568	236.462	553.501								
286.95	251.479	450.728	222.179	273.85	217.299	546.338	287	168.764	306.696	170.227	246.851	166.135	394.135	287	205.438	354.929	189.12	327.605	185.255	521.326	287	215.069	192.125	426.513	216.673	183.912	498.645	286.85	195.684	176.761	515.687	200.498	176.714	558.487	287.05	241.68	439.094	347.516	236.285	555.72								
286.9	256.379	470.229	221.169	266.476	217.095	562.969	286.95	169.479	326.216	169.459	238.865	166.051	405.866	286.95	208.433	373.846	188.298	318.129	185.103	533.398	286.95	219.443	190.491	443.649	212.075	183.71	514.528	286.8	198.997	176.546	548.038	196.275	176.512	590.319	287	242.931	423.636	366.643	236.107	560.998								
286.85	261.957	489.871	220.271	259.804	216.879	581.264	286.9	170.414	347.102	168.795	231.375	165.966	419.789	286.9	211.867	393.881	187.577	309.337	184.945	547.828	286.9	224.413	189.076	460.7	207.986	183.497	531.682	286.75	202.885	176.321	580.653	192.631	176.297	623.599	286.95	244.522	408.822	387.999	235.924	569.496								
286.8	268.297	509.399	219.469	253.801	216.655	601.002	286.85	171.618	369.153	168.216	224.391	165.875	435.752	286.85	215.792	414.917	186.938	301.176	184.776	564.495	286.85	230.047	187.845	477.462	204.354	183.273	549.89	286.7	207.432	176.082	612.989	189.496	176.065	657.803	286.9	246.519	394.687	411.578	235.732	581.32								
286.75	275.489	528.532	218.747	248.423	216.419	621.933	286.8	173.157	392.099	167.71	217.916	165.779	453.543	286.8	220.27	436.806	186.365	293.6	184.596	583.254	286.8	236.422	186.768	493.716	201.13	183.034	568.935	286.65	212.738	175.832	644.453	186.805	175.82	692.368	286.85	249.012	381.261	437.307	235.534	596.512								
286.7	283.63	546.968	218.09	243.625	216.171	643.802	286.75	175.109	415.594	167.263	211.944	165.676	472.881	286.75	225.372	459.365	185.85	286.568	184.407	603.933	286.75	243.623	185.82	509.237	198.273	182.781	588.609	286.6	218.909	175.565	674.401	184.496	175.556	726.7	286.8	252.102	368.562	465.031	235.332	615.032								
286.65	292.831	564.396	217.487	239.358	215.909	666.346	286.7	177.569	439.227	166.868	206.466	165.568	493.427	286.7	231.176	482.371	185.384	280.037	184.211	626.335	286.7	251.744	184.98	523.795	195.741	182.516	608.712	286.55	226.064	175.279	702.171	182.51	175.273	760.204	286.75	255.903	356.598	494.495	235.124	636.749								
286.6	303.209	580.497	216.925	235.576	215.632	689.312	286.65	180.648	462.52	166.515	201.467	165.453	514.791	286.65	237.765	505.563	184.957	273.967	184.006	650.232	286.65	260.89	184.231	537.164	193.498	182.24	629.062	286.5	234.343	174.977	727.108	180.802	174.973	792.31	286.7	260.543	345.363	525.333	234.903	661.433								
286.55	314.9	594.965	216.4	232.235	215.343	712.471	286.6	184.475	484.942	166.194	196.921	165.33	536.542	286.6	245.227	528.64	184.556	268.314	183.788	675.372	286.6	271.168	183.555	549.119	191.509	181.952	649.494	286.45	243.903	174.663	748.587	179.332	174.661	822.503	286.65	266.173	334.846	557.076	234.667	688.76								
286.5	328.048	607.506	215.903	229.289	215.042	735.62	286.55	189.202	505.93	165.9	192.806	165.198	558.244	286.55	253.664	551.278	184.174	263.042	183.556	701.489	286.55	282.699	182.936	559.452	189.741	181.651	669.876	286.4	254.91	174.337	766.037	178.059	174.335	850.338	286.6	272.967	325.033	589.149	234.415	718.318								
286.45	342.809	617.853	215.428	226.694	214.729	758.598	286.5	195.01	524.915	165.628	189.099	165.061	579.47	286.5	263.193	573.132	183.809	258.123	183.314	728.315	286.5	295.615	182.364	567.978	188.166	181.337	690.113	286.35	267.548	173.995	778.974	176.948	173.994	875.484	286.55	281.122	315.906	620.882	234.148	749.614								
286.4	359.352	625.775	214.966	224.409	214.4	781.301	286.45	202.099	541.34	165.373	185.768	164.915	599.834	286.45	273.936	593.839	183.458	253.529	183.062	755.575	286.45	310.054	181.828	574.536	186.758	181.009	710.148	286.3	282.024	173.64	787.027	175.97	173.639	897.744	286.5	290.861	307.442	651.52	233.865	782.094								
286.35	377.864	631.091	214.515	222.396	214.059	803.691	286.4	210.702	554.695	165.131	182.788	164.764	619.025	286.4	286.028	613.028	183.114	249.229	182.799	783.002	286.4	326.173	181.321	579.002	185.496	180.671	729.979	286.25	298.56	173.271	789.955	175.101	173.271	917.076	286.45	302.433	299.618	680.258	233.569	815.171								
286.3	398.545	633.676	214.071	220.621	213.704	825.801	286.35	221.079	564.545	164.899	180.128	164.605	636.836	286.35	299.618	630.339	182.777	245.202	182.527	810.355	286.35	344.136	180.836	581.285	184.361	180.322	749.65	286.2	317.403	172.89	787.666	174.32	172.89	933.61	286.4	316.105	292.399	706.264	233.256	848.257								
286.25	421.61	633.462	213.631	219.051	213.336	847.746	286.3	233.52	570.557	164.675	177.762	164.44	653.194	286.3	314.864	645.424	182.441	241.42	182.244	837.419	286.3	364.116	180.366	581.333	183.331	179.961	769.263	286.15	338.823	172.502	780.218	173.614	172.502	947.651	286.35	332.175	285.756	728.73	232.926	880.808								
286.2	447.294	630.445	213.191	217.659	212.956	869.723	286.25	248.35	572.524	164.459	175.664	164.272	668.181	286.25	331.938	657.964	182.102	237.862	181.946	864.029	286.25	386.298	179.904	579.137	182.39	179.586	788.972	286.1	363.107	172.107	767.815	172.967	172.107	959.676	286.3	350.961	279.653	746.908	232.579	912.365								
286.15	475.846	624.691	212.753	216.421	212.566	892.014	286.2	265.915	570.369	164.246	173.805	164.097	682.043	286.2	351.03	667.691	181.758	234.509	181.635	890.083	286.2	410.884	179.447	574.734	181.525	179.198	808.994	286.05	390.564	171.706	750.796	172.368	171.706	970.317	286.25	372.81	274.062	760.172	232.217	942.61								
286.1	507.526	616.313	212.311	215.309	212.161	914.974	286.15	286.593	564.162	164.036	172.163	163.919	695.198	286.15	372.349	674.387	181.41	231.347	181.314	915.55	286.15	438.081	178.992	568.199	180.723	178.798	829.6	286	421.523	171.3	729.619	171.807	171.3	980.349	286.2	398.086	268.951	768.039	231.844	971.388								
286.05	542.614	605.491	211.864	214.304	211.746	939.036	286.1	310.781	554.108	163.827	170.711	163.734	708.224	286.1	396.114	677.898	181.06	228.361	180.985	940.479	286.1	468.113	178.539	559.649	179.976	178.388	851.111	285.95	456.33	170.89	704.833	171.276	170.89	990.66	286.15	427.157	264.281	770.205	231.454	998.736								
286	581.398	592.446	211.408	213.387	211.315	964.694	286.05	338.894	540.534	163.616	169.427	163.543	721.841	286.05	422.561	678.138	180.705	225.537	180.646	965.002	286.05	501.202	178.082	549.229	179.271	177.966	873.887	285.9	495.343	170.472	677.05	170.764	170.472	1002.21	286.1	460.406	260.019	766.577	231.046	1024.91								
285.95	624.181	577.442	210.945	212.543	210.871	992.496	286	371.357	523.874	163.403	168.291	163.346	736.886	286	451.938	675.092	180.343	222.86	180.297	989.34	286	537.579	177.615	537.111	178.595	177.525	898.325	285.85	538.932	170.044	646.923	170.265	170.044	1016.03	286.05	498.216	256.133	757.274	230.623	1050.38								
285.9	671.267	560.764	210.467	211.752	210.409	1023.02	285.95	408.59	504.633	163.187	167.283	163.142	754.266	285.95	484.509	668.822	179.974	220.318	179.939	1013.81	285.95	577.482	177.138	523.5	177.944	177.069	924.857	285.8	587.473	169.611	615.116	169.777	169.611	1033.14	286	540.96	252.592	742.616	230.183	1075.8								
285.85	722.955	542.716	209.967	210.997	209.922	1056.87	285.9	450.999	483.366	162.965	166.387	162.93	774.926	285.9	520.547	659.457	179.595	217.899	179.568	1038.79	285.9	621.146	176.65	508.611	177.31	176.597	953.925	285.75	641.33	169.168	582.275	169.292	169.168	1054.56	285.95	588.99	249.369	723.109	229.729	1102.01								
285.8	779.548	523.611	209.444	210.265	209.408	1094.64	285.85	498.96	460.644	162.737	165.586	162.711	799.796	285.85	560.332	647.193	179.204	215.59	179.183	1064.77	285.85	668.796	176.149	492.67	176.687	176.109	985.977	285.7	700.844	168.71	549.002	168.802	168.71	1081.23	285.9	642.618	246.432	699.399	229.26	1129.93								
285.75	841.329	503.764	208.897	209.549	208.87	1136.93	285.8	552.794	437.029	162.501	164.864	162.48	829.748	285.8	604.154	632.286	178.802	213.384	178.787	1092.27	285.8	720.635	175.624	475.899	176.062	175.593	1021.44	285.65	766.321	168.236	515.851	168.304	168.236	1114	285.85	702.106	243.753	672.238	228.772	1160.55								
285.7	908.548	483.472	208.323	208.839	208.302	1184.28	285.75	612.752	413.048	162.253	164.207	162.237	865.548	285.75	652.294	615.036	178.389	211.272	178.377	1121.86	285.75	776.85	175.072	458.523	175.427	175.049	1060.73	285.6	838.002	167.741	483.306	167.791	167.741	1153.62	285.8	767.64	241.299	642.432	228.26	1194.85								
285.65	981.409	463.018	207.723	208.13	207.706	1237.16	285.7	678.989	389.18	161.993	163.603	161.981	907.823	285.7	705.017	595.774	177.959	209.243	177.95	1154.14	285.7	837.589	174.492	440.763	174.779	174.475	1104.2	285.55	916.042	167.223	451.779	167.259	167.223	1200.64	285.75	839.326	239.046	610.809	227.724	1233.73								
285.6	1060.04	442.653	207.088	207.407	207.075	1295.96	285.65	751.539	365.84	161.72	163.041	161.71	957.01	285.65	762.57	574.862	177.514	207.29	177.507	1189.71	285.65	902.947	173.879	422.82	174.11	173.866	1152.16	285.5	1000.47	166.679	421.604	166.706	166.679	1255.42	285.7	917.16	236.974	578.176	227.165	1277.98								
285.55	1144.46	422.601	206.416	206.666	206.406	1360.93	285.6	830.285	343.374	161.432	162.514	161.425	1013.33	285.6	825.147	552.662	177.049	205.402	177.044	1229.13	285.6	972.954	173.233	404.891	173.419	173.223	1204.83	285.45	1091.13	166.11	393.042	166.129	166.11	1318.08	285.65	1001	235.06	545.273	226.581	1328.18								
285.5	1234.58	403.056	205.702	205.896	205.694	1432.15	285.55	914.93	322.05	161.126	162.008	161.12	1076.75	285.55	892.884	529.539	176.564	203.573	176.56	1272.88	285.55	1047.55	172.558	387.15	172.706	172.551	1262.31	285.4	1187.67	165.509	366.274	165.523	165.509	1388.45	285.6	1090.58	233.286	512.765	225.973	1384.68								
285.45	1330.13	384.182	204.946	205.096	204.94	1509.53	285.5	1004.98	302.066	160.798	161.515	160.794	1146.98	285.5	965.825	505.849	176.056	201.796	176.053	1321.37	285.5	1126.55	171.845	369.742	171.963	171.84	1324.58	285.35	1289.44	164.871	341.413	164.881	164.871	1465.99	285.55	1185.42	231.631	481.21	225.338	1447.58								
285.4	1430.63	366.11	204.148	204.264	204.144	1592.72	285.45	1099.72	283.557	160.447	161.028	160.444	1223.42	285.45	1043.88	481.921	175.524	200.064	175.521	1374.83	285.45	1209.63	171.096	352.801	171.189	171.092	1391.44	285.3	1395.47	164.19	318.518	164.197	164.19	1549.8	285.5	1284.88	230.076	451.059	224.673	1516.67								
285.35	1535.33	348.937	203.303	203.392	203.3	1681.06	285.4	1198.19	266.594	160.071	160.54	160.068	1305.18	285.4	1126.82	458.064	174.968	198.374	174.966	1433.33	285.4	1296.29	170.3	336.428	170.375	170.297	1462.5	285.25	1504.4	163.466	297.597	163.471	163.466	1638.54	285.45	1388.13	228.598	422.648	223.969	1591.43								
285.3	1643.19	332.729	202.407	202.476	202.405	1773.59	285.35	1299.19	251.2	159.668	160.045	159.666	1391.1	285.35	1214.18	434.549	174.387	196.718	174.386	1496.67	285.35	1385.84	169.47	320.72	169.528	169.467	1537.15	285.2	1614.48	162.7	278.618	162.703	162.7	1730.4	285.4	1494.11	227.187	396.225	223.231	1671.06								
285.25	1752.83	317.531	201.46	201.513	201.458	1868.96	285.3	1401.29	237.358	159.24	159.542	159.238	1479.71	285.3	1305.24	411.604	173.774	195.087	173.773	1564.39	285.3	1477.35	168.595	305.738	168.641	168.594	1614.54	285.15	1723.48	161.893	261.516	161.896	161.893	1823.11	285.35	1601.59	225.831	371.936	222.458	1754.44								
285.2	1862.52	303.362	200.461	200.501	200.46	1965.46	285.25	1502.82	225.008	158.781	159.023	158.78	1569.29	285.25	1399.01	389.433	173.131	193.48	173.131	1635.66	285.25	1569.65	167.677	291.529	167.713	167.676	1693.54	285.1	1828.79	161.047	246.198	161.048	161.047	1913.94	285.3	1709.12	224.513	349.84	221.643	1840.19								
285.15	1970.14	290.225	199.413	199.443	199.412	2060.98	285.2	1601.94	214.075	158.294	158.486	158.293	1657.91	285.2	1494.13	368.197	172.459	191.892	172.459	1709.3	285.2	1661.32	166.716	278.125	166.744	166.715	1772.76	285.05	1927.43	160.16	232.552	160.161	160.16	1999.83	285.25	1815.1	223.226	329.937	220.789	1926.69								
285.1	2073.25	278.102	198.314	198.337	198.314	2153.06	285.15	1696.64	204.459	157.776	157.929	157.776	1743.48	285.15	1588.91	348.022	171.76	190.325	171.76	1783.73	285.15	1750.69	165.707	265.537	165.729	165.707	1850.54	285	2016.22	159.237	220.457	159.238	159.237	2077.44	285.2	1917.79	221.961	312.164	219.896	2012.12								
285.05	2169.13	266.961	197.166	197.183	197.166	2238.95	285.1	1784.87	196.053	157.232	157.352	157.231	1823.81	285.1	1681.26	328.994	171.03	188.77	171.03	1856.96	285.1	1835.87	164.654	253.768	164.671	164.654	1925	284.95	2091.94	158.283	209.784	158.283	158.283	2143.44	285.15	2015.33	220.701	296.411	218.956	2094.53								
285	2254.94	256.766	195.976	195.989	195.976	2315.75	285.05	1864.53	188.747	156.663	156.758	156.663	1896.71	285.05	1768.81	311.175	170.273	187.23	170.273	1926.67	285.05	1914.82	163.56	242.812	163.573	163.56	1994.08	284.9	2151.57	157.305	200.407	157.305	157.305	2194.67	285.1	2105.84	219.442	282.546	217.97	2171.89								
284.95	2327.82	247.469	194.746	194.755	194.745	2380.55	285	1933.64	182.425	156.072	156.147	156.072	1960.07	285	1848.93	294.6	169.494	185.706	169.494	1990.25	285	1985.4	162.426	232.648	162.436	162.426	2055.64	284.85	2192.52	156.307	192.195	156.307	156.307	2228.41	285.05	2187.46	218.177	270.415	216.939	2242.18								
284.9	2385.11	239.021	193.486	193.493	193.486	2430.66	284.95	1990.38	176.973	155.459	155.517	155.458	2011.95	284.95	1918.92	279.275	168.694	184.199	168.694	2045	284.95	2045.55	161.261	223.257	161.269	161.261	2107.55	284.8	2212.94	155.297	185.028	155.297	155.297	2242.67	285	2258.42	216.912	259.863	215.872	2303.45								
284.85	2424.58	231.361	192.197	192.202	192.197	2463.75	284.9	2033.17	172.283	154.825	154.87	154.824	2050.68	284.9	1976.11	265.184	167.874	182.705	167.874	2088.25	284.9	2093.31	160.064	214.602	160.07	160.064	2147.85	284.75	2211.83	154.28	178.787	154.28	154.28	2236.33	284.95	2317.1	215.64	250.72	214.769	2353.92								
284.8	2444.59	224.44	190.893	190.897	190.893	2478.14	284.85	2060.81	168.26	154.177	154.212	154.177	2074.93	284.85	2018.16	252.3	167.041	181.231	167.041	2117.61	284.85	2127.04	158.845	206.653	158.849	158.844	2174.86	284.7	2189.2	153.264	173.364	153.264	153.264	2209.3	284.9	2362.12	214.369	242.833	213.642	2392.04								
284.75	2444.26	218.199	189.58	189.583	189.58	2472.88	284.8	2072.49	164.815	153.522	153.55	153.522	2083.81	284.8	2043.22	240.581	166.201	179.78	166.201	2131.18	284.8	2145.53	157.609	199.371	157.612	157.609	2187.29	284.65	2146.07	152.259	168.663	152.259	152.259	2162.47	284.85	2392.37	213.106	236.05	212.5	2416.53								
284.7	2423.55	212.583	188.266	188.268	188.266	2447.87	284.75	2067.85	161.865	152.863	152.884	152.863	2076.87	284.75	2050.13	229.972	165.356	178.354	165.356	2127.75	284.75	2148.06	156.365	192.72	156.367	156.365	2184.42	284.6	2084.33	151.272	164.594	151.272	151.272	2097.65	284.8	2407.08	211.845	230.219	211.34	2426.47								
284.65	2383.29	207.544	186.964	186.966	186.964	2403.87	284.7	2047.02	159.337	152.203	152.219	152.203	2054.17	284.7	2038.53	220.409	164.509	176.952	164.509	2106.87	284.7	2134.5	155.12	186.661	155.122	155.12	2166.04	284.55	2006.56	150.307	161.073	150.307	150.307	2017.33	284.75	2405.88	210.59	225.21	210.171	2421.34								
284.6	2325.07	203.035	185.688	185.689	185.688	2342.42	284.65	2010.58	157.171	151.55	151.563	151.55	2016.21	284.65	2008.92	211.831	163.67	175.585	163.67	2069	284.65	2105.3	153.88	181.151	153.882	153.88	2132.58	284.5	1915.81	149.373	158.031	149.373	149.373	1924.47	284.7	2388.76	209.348	220.906	209.001	2401.02								
284.55	2251.09	199.002	184.437	184.437	184.436	2265.66	284.6	1959.55	155.309	150.906	150.916	150.906	1963.97	284.6	1962.6	204.166	162.841	174.251	162.841	2015.33	284.6	2061.49	152.654	176.154	152.655	152.654	2084.99	284.45	1815.32	148.478	155.406	148.478	148.478	1822.25	284.65	2356.14	208.126	217.205	207.839	2365.79								
284.5	2163.98	195.401	183.218	183.219	183.218	2176.17	284.55	1895.35	153.704	150.275	150.282	150.275	1898.78	284.55	1901.52	197.344	162.028	172.957	162.028	1947.76	284.55	2004.53	151.451	171.634	151.452	151.451	2024.71	284.4	1708.27	147.628	153.146	147.628	147.628	1713.79	284.6	2308.79	206.934	214.02	206.698	2316.35								
284.45	2066.61	192.193	182.043	182.044	182.043	2076.76	284.5	1819.66	152.32	149.665	149.671	149.665	1822.32	284.5	1828.11	191.295	161.233	171.703	161.233	1868.64	284.5	1936.25	150.278	167.555	150.278	150.278	1953.53	284.35	1597.63	146.822	151.195	146.822	146.822	1602.01	284.55	2247.83	205.773	211.268	205.579	2253.72								
284.4	1961.84	189.34	180.917	180.917	180.917	1970.26	284.45	1734.44	151.126	149.082	149.086	149.082	1736.48	284.45	1745.04	185.954	160.467	170.498	160.467	1780.56	284.45	1858.7	149.143	163.884	149.143	149.143	1873.44	284.3	1486.04	146.067	149.516	146.067	146.067	1489.49	284.5	2174.67	204.648	208.882	204.489	2179.22								
284.35	1852.42	186.811	179.847	179.848	179.847	1859.38	284.4	1641.71	150.093	148.529	148.532	148.529	1643.28	284.4	1655.05	181.259	159.735	169.347	159.735	1686.19	284.4	1774.02	148.056	160.592	148.056	148.056	1786.55	284.25	1375.7	145.366	148.073	145.366	145.366	1378.4	284.45	2090.91	203.562	206.803	203.431	2094.41								
284.3	1740.82	184.572	178.838	178.838	178.838	1746.55	284.35	1543.58	149.197	148.006	148.009	148.006	1544.77	284.35	1560.73	177.145	159.039	168.25	159.039	1588.05	284.35	1684.3	147.021	157.647	147.021	147.021	1694.92	284.2	1268.37	144.716	146.831	144.716	144.716	1270.49	284.4	1998.36	202.521	204.986	202.414	2001.04								
284.25	1629.19	182.594	177.889	177.89	177.889	1633.89	284.3	1442.08	148.418	147.517	147.519	147.517	1442.98	284.3	1464.41	173.552	158.38	167.209	158.38	1488.41	284.3	1591.52	146.043	155.021	146.043	146.043	1600.5	284.15	1165.41	144.12	145.764	144.12	144.12	1167.05	284.35	1898.89	201.536	203.398	201.448	1900.92								
284.2	1519.31	180.849	177.005	177.005	177.005	1523.15	284.25	1339.15	147.744	147.066	147.067	147.066	1339.83	284.25	1368.12	170.43	157.766	166.228	157.766	1389.25	284.25	1497.46	145.124	152.685	145.124	145.124	1505.02	284.1	1067.77	143.576	144.848	143.576	143.576	1069.05	284.3	1794.38	200.606	202.004	200.535	1795.92								
284.15	1412.58	179.312	176.182	176.182	176.182	1415.71	284.2	1236.56	147.156	146.65	146.651	146.65	1237.07	284.2	1273.5	167.723	157.192	165.305	157.192	1292.15	284.2	1403.66	144.263	150.61	144.263	144.263	1410.01	284.05	976.102	143.084	144.063	143.084	143.084	977.081	284.25	1686.68	199.737	200.779	199.679	1687.83								
284.1	1310.09	177.962	175.424	175.424	175.424	1312.63	284.15	1135.86	146.647	146.27	146.271	146.27	1136.24	284.15	1181.85	165.389	156.665	164.443	156.665	1198.35	284.15	1311.41	143.457	148.768	143.457	143.457	1316.72	284	890.746	142.64	143.39	142.64	142.64	891.496	284.2	1577.53	198.926	199.698	198.879	1578.39								
284.05	1212.59	176.782	174.731	174.731	174.731	1214.65	284.1	1038.37	146.207	145.928	145.929	145.928	1038.65	284.1	1094.11	163.381	156.183	163.641	156.183	1108.77	284.1	1221.74	142.708	147.139	142.708	142.708	1226.17	283.95	811.846	142.242	142.814	142.242	142.242	812.418	284.15	1468.54	198.177	198.745	198.139	1469.18								
284	1120.59	175.748	174.097	174.097	174.097	1122.24	284.05	945.167	145.827	145.622	145.622	145.622	945.372	284.05	1010.96	161.661	155.743	162.894	155.743	1024.02	284.05	1135.45	142.016	145.699	142.016	142.016	1139.14	283.9	739.374	141.891	142.325	141.891	141.891	739.808	284.1	1361.15	197.493	197.908	197.463	1361.63								
283.95	1034.37	174.85	173.526	173.526	173.526	1035.69	284	857.083	145.498	145.348	145.348	145.348	857.233	284	932.792	160.191	155.345	162.202	155.345	944.496	284	1053.13	141.38	144.432	141.38	141.38	1056.18	283.85	673.168	141.583	141.911	141.583	141.583	673.496	284.05	1256.6	196.872	197.173	196.848	1256.95								
283.9	954.033	174.063	173.005	173.005	173.005	955.09	283.95	774.722	145.212	145.103	145.104	145.103	774.831	283.95	859.833	158.936	154.983	161.559	154.983	870.363	283.95	975.168	140.795	143.317	140.795	140.795	977.69	283.8	612.975	141.311	141.557	141.311	141.311	613.221	284	1155.93	196.311	196.527	196.291	1156.19								
283.85	879.556	173.376	172.535	172.535	172.535	880.397	283.9	698.473	144.965	144.886	144.886	144.886	698.551	283.9	792.133	157.868	154.654	160.962	154.654	801.654	283.9	901.808	140.26	142.337	140.26	140.26	903.885	283.75	558.483	141.071	141.255	141.071	141.071	558.667	283.95	1059.98	195.802	195.957	195.787	1060.16								
283.8	810.814	172.781	172.114	172.114	172.114	811.481	283.85	628.538	144.752	144.696	144.696	144.696	628.594	283.85	729.633	156.963	154.361	160.411	154.361	738.284	283.85	833.159	139.769	141.474	139.769	139.769	834.864	283.7	509.344	140.861	140.998	140.861	140.861	509.481	283.9	969.366	195.344	195.453	195.331	969.501								
283.75	747.601	172.26	171.734	171.734	171.734	748.128	283.8	564.953	144.569	144.529	144.529	144.529	564.993	283.8	672.177	156.195	154.096	159.899	154.096	680.079	283.8	769.231	139.323	140.718	139.323	139.323	770.626	283.65	465.187	140.678	140.78	140.678	140.678	465.288	283.85	884.555	194.933	195.01	194.923	884.652								
283.7	689.663	171.802	171.388	171.388	171.388	690.077	283.75	507.619	144.41	144.382	144.382	144.382	507.648	283.75	619.557	155.546	153.86	159.426	153.86	626.81	283.75	709.955	138.921	140.059	138.921	138.921	711.093	283.6	425.631	140.516	140.59	140.516	140.516	425.706	283.8	805.826	194.567	194.621	194.559	805.895								
283.65	636.716	171.401	171.076	171.076	171.076	637.041	283.7	456.328	144.274	144.253	144.253	144.253	456.348	283.7	571.519	154.997	153.646	158.985	153.646	578.208	283.7	655.202	138.561	139.487	138.561	138.561	656.128	283.55	390.308	140.374	140.429	140.374	140.374	390.363	283.75	733.31	194.245	194.282	194.238	733.36								
283.6	588.458	171.048	170.794	170.794	170.794	588.712	283.65	410.787	144.156	144.142	144.142	144.142	410.801	283.65	527.788	154.532	153.455	158.576	153.455	533.987	283.65	604.79	138.235	138.985	138.235	138.235	605.54	283.5	358.853	140.253	140.293	140.253	140.253	358.893	283.7	667.008	193.96	193.985	193.955	667.043								
283.55	544.578	170.739	170.541	170.541	170.541	544.776	283.6	370.643	144.055	144.045	144.045	144.045	370.652	283.6	488.081	154.141	153.285	158.198	153.285	493.85	283.6	558.517	137.942	138.548	137.942	137.942	559.123	283.45	330.919	140.147	140.176	140.147	140.147	330.948	283.65	606.805	193.704	193.721	193.7	606.83								
283.5	504.766	170.466	170.314	170.314	170.314	504.918	283.55	335.499	143.967	143.961	143.961	143.961	335.506	283.55	452.108	153.812	153.134	157.847	153.134	457.498	283.55	516.155	137.676	138.164	137.676	137.676	516.643	283.4	306.171	140.052	140.073	140.052	140.052	306.192	283.6	552.506	193.477	193.489	193.474	552.524								
283.45	468.717	170.229	170.111	170.111	170.111	468.835	283.5	304.938	143.891	143.886	143.886	143.886	304.943	283.5	419.585	153.535	153.001	157.522	153.001	424.641	283.5	477.467	137.433	137.825	137.433	137.433	477.858	283.35	284.303	139.968	139.984	139.968	139.968	284.318	283.55	503.847	193.277	193.284	193.274	503.86								
283.4	436.136	170.019	169.928	169.928	169.928	436.227	283.45	278.537	143.826	143.822	143.822	143.822	278.541	283.45	390.24	153.304	152.884	157.221	152.884	394.997	283.45	442.216	137.212	137.525	137.212	137.212	442.53	283.3	265.025	139.892	139.903	139.892	139.892	265.035	283.5	460.51	193.1	193.105	193.098	460.519								
283.35	406.741	169.834	169.764	169.764	169.764	406.81	283.4	255.872	143.769	143.766	143.766	143.766	255.874	283.4	363.804	153.107	152.778	156.939	152.778	368.294	283.4	410.166	137.011	137.261	137.011	137.011	410.416	283.25	248.071	139.824	139.832	139.824	139.824	248.078	283.45	422.143	192.944	192.947	192.943	422.149								
283.3	380.266	169.671	169.618	169.618	169.618	380.319	283.35	236.531	143.718	143.716	143.716	143.716	236.533	283.35	340.029	152.939	152.683	156.675	152.683	344.278	283.35	381.082	136.827	137.026	136.827	136.827	381.281	283.2	233.197	139.763	139.769	139.763	139.763	233.202	283.4	388.371	192.809	192.811	192.808	388.375								
283.25	356.464	169.531	169.49	169.49	169.49	356.504	283.3	220.128	143.674	143.672	143.672	143.672	220.129	283.3	318.684	152.796	152.597	156.427	152.597	322.712	283.3	354.74	136.659	136.816	136.659	136.659	354.897	283.15	220.18	139.71	139.714	139.71	139.71	220.183	283.35	358.811	192.692	192.694	192.691	358.814								
283.2	335.098	169.41	169.379	169.379	169.379	335.128	283.25	206.298	143.635	143.634	143.634	143.634	206.299	283.25	299.546	152.672	152.518	156.192	152.518	303.374	283.25	330.924	136.504	136.629	136.504	136.504	331.048	283.1	208.811	139.661	139.664	139.661	139.661	208.814	283.3	333.077	192.591	192.591	192.59	333.079								
283.15	315.948	169.305	169.282	169.282	169.282	315.971	283.2	194.703	143.6	143.599	143.599	143.599	194.704	283.2	282.415	152.565	152.447	155.971	152.447	286.058	283.2	309.43	136.365	136.463	136.365	136.365	309.528	283.05	198.905	139.615	139.617	139.615	139.615	198.907	283.25	310.789	192.499	192.499	192.498	310.79								
283.1	298.808	169.212	169.195	169.195	169.195	298.826	283.15	185.039	143.569	143.568	143.568	143.568	185.039	283.15	267.103	152.472	152.38	155.761	152.38	270.575	283.15	290.065	136.239	136.316	136.239	136.239	290.143	283	190.294	139.573	139.574	139.573	139.573	190.295	283.2	291.588	192.419	192.419	192.419	291.589								
283.05	283.49	169.128	169.115	169.115	169.115	283.503	283.1	177.029	143.542	143.542	143.542	143.542	177.029	283.1	253.436	152.389	152.319	155.562	152.319	256.749	283.1	272.652	136.129	136.189	136.129	136.129	272.712	282.95	182.827	139.535	139.536	139.535	139.535	182.828	283.15	275.131	192.35	192.35	192.35	275.132								
283	269.82	169.053	169.043	169.043	169.043	269.83	283.05	170.426	143.52	143.519	143.519	143.519	170.426	283.05	241.257	152.317	152.264	155.375	152.264	244.421	283.05	257.015	136.03	136.077	136.03	136.03	257.062	282.9	176.369	139.502	139.503	139.502	139.502	176.369	283.1	261.097	192.291	192.291	192.29	261.097								
282.95	257.64	168.984	168.977	168.977	168.977	257.647	283	165.014	143.5	143.5	143.5	143.5	165.014	283	230.419	152.253	152.212	155.196	152.212	233.443	283	242.998	135.943	135.98	135.943	135.943	243.035	282.85	170.795	139.473	139.473	139.473	139.473	170.795	283.05	249.186	192.239	192.239	192.239	249.187								
282.9	246.801	168.919	168.914	168.914	168.914	246.807	282.95	160.601	143.483	143.483	143.483	143.483	160.601	282.95	220.79	152.198	152.167	155.029	152.167	223.683	282.95	230.454	135.868	135.896	135.868	135.868	230.482	282.8	165.996	139.446	139.447	139.446	139.446	165.996	283	239.126	192.193	192.193	192.193	239.126								
282.85	237.173	168.861	168.857	168.857	168.857	237.177	282.9	157.023	143.469	143.469	143.469	143.469	157.023	282.9	212.25	152.151	152.128	154.873	152.128	215.019	282.9	219.245	135.803	135.825	135.803	135.803	219.267	282.75	161.874	139.423	139.423	139.423	139.423	161.874	282.95	230.668	192.151	192.151	192.151	230.668								
282.8	228.633	168.808	168.805	168.805	168.805	228.636	282.85	154.137	143.457	143.457	143.457	143.457	154.137	282.85	204.686	152.11	152.092	154.726	152.092	207.336	282.85	209.248	135.748	135.765	135.748	135.748	209.265	282.7	158.342	139.401	139.401	139.401	139.401	158.342	282.9	223.591	192.113	192.113	192.113	223.591								
282.75	221.072	168.76	168.758	168.758	168.758	221.074	282.8	151.821	143.447	143.447	143.447	143.447	151.821	282.8	197.995	152.073	152.06	154.585	152.06	200.533	282.8	200.348	135.705	135.718	135.705	135.705	200.361	282.65	155.322	139.381	139.381	139.381	139.381	155.323	282.85	217.696	192.079	192.079	192.079	217.696								
282.7	214.387	168.718	168.717	168.717	168.717	214.389	282.75	149.973	143.439	143.439	143.439	143.439	149.973	282.75	192.088	152.042	152.032	154.454	152.032	194.519	282.75	192.434	135.669	135.679	135.669	135.669	192.444	282.6	152.747	139.363	139.363	139.363	139.363	152.747	282.8	212.811	192.051	192.051	192.051	212.811								
282.65	208.488	168.682	168.681	168.681	168.681	208.489	282.7	148.505	143.431	143.431	143.431	143.431	148.505	282.7	186.881	152.015	152.008	154.33	152.008	189.211	282.7	185.407	135.638	135.645	135.638	135.638	185.415	282.55	150.557	139.347	139.347	139.347	139.347	150.557	282.75	208.781	192.027	192.027	192.027	208.781								
282.6	203.294	168.654	168.654	168.654	168.654	203.295	282.65	147.345	143.425	143.425	143.425	143.425	147.346	282.65	182.297	151.99	151.985	154.212	151.985	184.529	282.65	179.174	135.607	135.613	135.607	135.607	179.18	282.5	148.699	139.333	139.333	139.333	139.333	148.699	282.7	205.472	192.007	192.007	192.007	205.472								
282.55	198.725	168.63	168.63	168.63	168.63	198.725	282.6	146.435	143.42	143.42	143.42	143.42	146.435	282.6	178.267	151.967	151.963	154.098	151.963	180.406	282.6	173.657	135.579	135.584	135.579	135.579	173.661	282.45	147.127	139.32	139.32	139.32	139.32	147.127	282.65	202.766	191.989	191.989	191.989	202.766								
282.5	194.712	168.609	168.609	168.609	168.609	194.712	282.55	145.723	143.416	143.416	143.416	143.416	145.723	282.55	174.731	151.946	151.943	153.99	151.943	176.781	282.55	168.782	135.555	135.559	135.555	135.555	168.785	282.4	145.8	139.309	139.309	139.309	139.309	145.8	282.6	200.562	191.973	191.973	191.973	200.562								
282.45	191.193	168.59	168.59	168.59	168.59	191.193	282.5	145.17	143.413	143.413	143.413	143.413	145.17	282.5	171.633	151.926	151.924	153.888	151.924	173.598	282.5	164.481	135.535	135.537	135.535	135.535	164.484	282.35	144.683	139.3	139.3	139.3	139.3	144.683	282.55	198.777	191.96	191.96	191.96	198.777								
282.4	188.113	168.574	168.574	168.574	168.574	188.114	282.45	144.742	143.411	143.411	143.411	143.411	144.742	282.45	168.924	151.909	151.908	153.79	151.908	170.808	282.45	160.694	135.518	135.52	135.518	135.518	160.696	282.3	143.745	139.292	139.292	139.292	139.292	143.745	282.5	197.338	191.949	191.949	191.949	197.338								
282.35	185.422	168.56	168.56	168.56	168.56	185.423	282.4	144.413	143.409	143.409	143.409	143.409	144.413	282.4	166.561	151.895	151.894	153.698	151.894	168.366	282.4	157.362	135.5	135.501	135.5	135.5	157.364	282.25	142.961	139.286	139.286	139.286	139.286	142.961	282.45	196.18	191.939	191.939	191.939	196.18								
282.3	183.075	168.548	168.547	168.547	168.547	183.075	282.35	144.162	143.408	143.408	143.408	143.408	144.162	282.35	164.502	151.883	151.882	153.612	151.882	166.232	282.35	154.436	135.483	135.484	135.483	135.483	154.437	282.2	142.305	139.281	139.281	139.281	139.281	142.305	282.4	195.253	191.928	191.928	191.928	195.253								
282.25	181.031	168.537	168.537	168.537	168.537	181.031	282.3	143.97	143.407	143.407	143.407	143.407	143.97	282.3	162.712	151.873	151.873	153.531	151.873	164.371	282.3	151.871	135.468	135.469	135.468	135.468	151.872	282.15	141.76	139.277	139.277	139.277	139.277	141.76	282.35	194.514	191.918	191.918	191.918	194.514								
282.2	179.253	168.527	168.527	168.527	168.527	179.253	282.25	144.888	144.469	144.469	144.469	144.469	144.888	282.25	161.159	151.866	151.866	153.455	151.866	162.748	282.25	149.628	135.456	135.457	135.456	135.456	149.629	282.1	141.305	139.272	139.272	139.272	139.272	141.305	282.3	193.926	191.908	191.908	191.908	193.926								
282.15	177.711	168.518	168.518	168.518	168.518	177.711	282.2	145.84	145.531	145.531	145.531	145.531	145.84	282.2	159.813	151.86	151.859	153.382	151.859	161.337	282.2	147.671	135.447	135.447	135.447	135.447	147.672	282.05	140.929	139.269	139.269	139.269	139.269	140.929	282.25	193.46	191.898	191.898	191.898	193.46								
282.1	176.374	168.51	168.51	168.51	168.51	176.374	282.15	146.82	146.593	146.593	146.593	146.593	146.82	282.15	158.651	151.856	151.855	153.315	151.855	160.11	282.15	145.966	135.44	135.44	135.44	135.44	145.966	282	140.619	139.266	139.266	139.266	139.266	140.619	282.2	193.093	191.889	191.889	191.889	193.093								
282.05	175.221	168.505	168.505	168.505	168.505	175.221	282.1	147.821	147.654	147.654	147.654	147.654	147.821	282.1	157.648	151.853	151.853	153.251	151.853	159.046	282.1	144.482	135.434	135.434	135.434	135.434	144.482	281.95	140.363	139.264	139.264	139.264	139.264	140.363	282.15	192.805	191.88	191.88	191.88	192.805								
282	174.227	168.502	168.502	168.502	168.502	174.227	282.05	148.838	148.716	148.716	148.716	148.716	148.838	282.05	156.785	151.853	151.852	153.192	151.852	158.125	282.05	143.192	135.428	135.428	135.428	135.428	143.192	281.9	140.154	139.263	139.263	139.263	139.263	140.154	282.1	192.579	191.871	191.871	191.871	192.579								
281.95	173.372	168.501	168.501	168.501	168.501	173.372	282	149.866	149.778	149.778	149.778	149.778	149.866	282	156.043	151.853	151.852	153.136	151.852	157.327	282	142.071	135.421	135.421	135.421	135.421	142.072	281.85	139.982	139.262	139.262	139.262	139.262	139.982	282.05	192.403	191.864	191.864	191.864	192.403								
281.9	172.637	168.5	168.5	168.5	168.5	172.637	281.95	0	0	0	0	0	141.397	281.95	155.407	151.853	151.852	153.082	151.852	156.636	281.95	141.103	135.416	135.416	135.416	135.416	141.103	281.8	139.84	139.26	139.26	139.26	139.26	139.84	282	192.267	191.859	191.859	191.859	192.267								
281.85	172.105	168.597	168.597	168.597	168.597	172.105	281.9	0	0	0	0	0	156.046	281.9	154.861	151.853	151.852	153.03	151.852	156.039	281.9	140.267	135.413	135.413	135.413	135.413	140.268	281.75	139.726	139.259	139.259	139.259	139.259	139.726	281.95	192.164	191.856	191.856	191.856	192.164								
281.8	171.663	168.694	168.694	168.694	168.694	171.663	281.85	0	0	0	0	0	160.033	281.85	154.394	151.852	151.852	152.981	151.852	155.522	281.85	139.547	135.41	135.41	135.41	135.41	139.547	281.7	0	0	0	0	0	135.04	281.9	192.085	191.854	191.854	191.854	192.085								
281.75	171.299	168.792	168.792	168.792	168.792	171.299	281.8	0	0	0	0	0	136.023	281.8	153.995	151.852	151.852	152.932	151.852	155.076	281.8	138.927	135.408	135.408	135.408	135.408	138.927	281.65	0	0	0	0	0	157.632	281.85	192.026	191.853	191.853	191.853	192.026								
281.7	171.003	168.889	168.889	168.889	168.889	171.003	281.75	0	0	0	0	0	118.683	281.75	0	0	0	0	0	150.839	281.75	138.395	135.407	135.407	135.407	135.407	138.395	281.6	0	0	0	0	0	130.905	281.8	191.981	191.852	191.852	191.852	191.981								
281.65	0	0	0	0	0	177.779	281.7	0	0	0	0	0	136.012	281.7	0	0	0	0	0	159.839	281.7	138.68	136.148	136.148	136.148	136.148	138.68	281.55	0	0	0	0	0	129.523	281.75	191.948	191.852	191.852	191.852	191.948								
281.6	0	0	0	0	0	160.161	281.65	0	0	0	0	0	145.341	281.65	0	0	0	0	0	162.219	281.65	139.031	136.889	136.889	136.889	136.889	139.031	281.5	0	0	0	0	0	158.817	281.7	0	0	0	0	186.738								
281.55	0	0	0	0	0	166.586	281.6	0	0	0	0	0	132.006	281.6	0	0	0	0	0	179.305	281.6	139.438	137.63	137.63	137.63	137.63	139.438	281.45	0	0	0	0	0	134.786	281.65	0	0	0	0	190.719								
281.5	0	0	0	0	0	165.048	281.55	0	0	0	0	0	152.004	281.55	0	0	0	0	0	160.424	281.55	140.166	138.642	138.642	138.642	138.642	140.166	281.4	0	0	0	0	0	146.76	281.6	0	0	0	0	193.372								
281.45	0	0	0	0	0	159.542	281.5	0	0	0	0	0	146.669	281.5	0	0	0	0	0	150.905	281.5	140.937	139.654	139.654	139.654	139.654	140.937	281.35	0	0	0	0	0	140.074	281.55	0	0	0	0	189.361								
281.4	0	0	0	0	0	166.063	281.45	0	0	0	0	0	150.669	281.45	0	0	0	0	0	140.079	281.45	141.744	140.667	140.667	140.667	140.667	141.744	281.3	0	0	0	0	0	130.725	281.5	0	0	0	0	202.687								
281.35	0	0	0	0	0	155.273	281.4	0	0	0	0	0	122.668	281.4	0	0	0	0	0	139.94	281.4	142.582	141.679	141.679	141.679	141.679	142.582	281.25	0	0	0	0	0	149.379	281.45	0	0	0	0	206.681								
281.3	0	0	0	0	0	172.504	281.35	0	0	0	0	0	132.001	281.35	0	0	0	0	0	135.819	281.35	143.446	142.691	142.691	142.691	142.691	143.446	281.2	0	0	0	0	0	140.035	281.4	0	0	0	0	202.677								
281.25	0	0	0	0	0	147.084	281.3	0	0	0	0	0	132.001	281.3	0	0	0	0	0	161.048	281.3	144.334	143.704	143.704	143.704	143.704	144.334	281.15	0	0	0	0	0	140.027	281.35	0	0	0	0	186.674								
281.2	0	0	0	0	0	152.345	281.25	0	0	0	0	0	110.667	281.25	0	0	0	0	0	130.289	281.25	0	0	0	0	0	131.192	281.1	0	0	0	0	0	133.355	281.3	0	0	0	0	197.339								
281.15	0	0	0	0	0	173.618	281.2	0	0	0	0	0	113.334	281.2	0	0	0	0	0	139.543	281.2	0	0	0	0	0	143.104	281.05	0	0	0	0	0	148.016	281.25	0	0	0	0	185.337								
281.1	0	0	0	0	0	140.235	281.15	0	0	0	0	0	136	281.15	0	0	0	0	0	147.473	281.15	0	0	0	0	0	151.03	281	0	0	0	0	0	126.679	281.2	0	0	0	0	188.003								
281.05	0	0	0	0	0	133.526	281.1	0	0	0	0	0	154.667	281.1	0	0	0	0	0	159.411	281.1	0	0	0	0	0	149.634	280.95	0	0	0	0	0	141.343	281.15	0	0	0	0	200.002								
281	0	0	0	0	0	152.158	281.05	0	0	0	0	0	144	281.05	0	0	0	0	0	171.356	281.05	0	0	0	0	0	125.582	280.9	0	0	0	0	0	126.674	281.1	0	0	0	0	172.001								
280.95	0	0	0	0	0	156.13	281	0	0	0	0	0	132	281	0	0	0	0	0	153.974	281	0	0	0	0	0	108.205	280.85	0	0	0	0	0	141.339	281.05	0	0	0	0	197.334								
280.9	0	0	0	0	0	164.106	280.95	0	0	0	0	0	128	280.95	0	0	0	0	0	133.931	280.95	0	0	0	0	0	126.836	280.8	0	0	0	0	0	125.338	281	0	0	0	0	194.667								
280.85	0	0	0	0	0	149.42	280.9	0	0	0	0	0	136	280.9	0	0	0	0	0	131.225	280.9	0	0	0	0	0	142.806	280.75	0	0	0	0	0	133.337	280.95	0	0	0	0	190.667								
280.8	0	0	0	0	0	148.07	280.85	0	0	0	0	0	122.667	280.85	0	0	0	0	0	121.857	280.85	0	0	0	0	0	130.781	280.7	0	0	0	0	0	129.336	280.9	0	0	0	0	213.334								
280.75	0	0	0	0	0	156.057	280.8	0	0	0	0	0	128	280.8	0	0	0	0	0	156.492	280.8	0	0	0	0	0	112.094	280.65	0	0	0	0	0	132.002	280.85	0	0	0	0	198.667								
280.7	0	0	0	0	0	176.046	280.75	0	0	0	0	0	128	280.75	0	0	0	0	0	157.796	280.75	0	0	0	0	0	133.41	280.6	0	0	0	0	0	133.335	280.8	0	0	0	0	209.333								
280.65	0	0	0	0	0	170.704	280.7	0	0	0	0	0	125.333	280.7	0	0	0	0	0	161.77	280.7	0	0	0	0	0	140.062	280.55	0	0	0	0	0	117.334	280.75	0	0	0	0	202.667								
280.6	0	0	0	0	0	154.697	280.65	0	0	0	0	0	104	280.65	0	0	0	0	0	143.079	280.65	0	0	0	0	0	120.051	280.5	0	0	0	0	0	148.001	280.7	0	0	0	0	228								
280.55	0	0	0	0	0	166.691	280.6	0	0	0	0	0	124	280.6	0	0	0	0	0	149.724	280.6	0	0	0	0	0	124.041	280.45	0	0	0	0	0	130.667	280.65	0	0	0	0	180								
280.5	0	0	0	0	0	153.353	280.55	0	0	0	0	0	117.333	280.55	0	0	0	0	0	140.37	280.55	0	0	0	0	0	109.367	280.4	0	0	0	0	0	129.334	280.6	0	0	0	0	190.667								
280.45	0	0	0	0	0	158.682	280.5	0	0	0	0	0	121.333	280.5	0	0	0	0	0	144.351	280.5	0	0	0	0	0	140.027	280.35	0	0	0	0	0	128	280.55	0	0	0	0	198.667								
280.4	0	0	0	0	0	124.013	280.45	0	0	0	0	0	129.333	280.45	0	0	0	0	0	130.999	280.45	0	0	0	0	0	136.022	280.3	0	0	0	0	0	152	280.5	0	0	0	0	172								